#Rx
# X(m), Y(m), Z(m), Distance(m), Power (dBm) Phase (deg)
1 0.609402 6.15212 1 0 -66.8081 -96.015
2 0.800379 6.21151 1 0.2 -72.9227 68.3732
3 0.991404 6.27073 1 0.4 -65.8391 -33.1454
4 1.18335 6.32688 1 0.6 -66.0857 54.2714
5 1.3769 6.37726 1 0.8 -76.6607 -103.039
6 1.57092 6.42576 1 1 -70.4959 5.9473
7 1.76398 6.47792 1 1.2 -70.1879 -35.6382
8 1.95473 6.53799 1 1.4 -83.8654 165.22
9 2.14355 6.6039 1 1.6 -79.1081 5.01378
10 2.33173 6.67162 1 1.8 -78.4715 129.897
11 2.52059 6.73742 1 2 -87.7746 -126.962
12 2.71009 6.80135 1 2.2 -83.0166 145.562
13 2.9001 6.86375 1 2.4 -79.739 -113.285
14 3.0923 6.91896 1 2.6 -80.9891 -49.0928
15 3.28767 6.96155 1 2.8 -66.3711 -41.8262
16 3.4848 6.99524 1 3 -59.0681 -163.215
17 3.68179 7.02977 1 3.2 -59.8744 -151.398
18 3.87771 7.06992 1 3.4 -59.0125 168.869
19 4.07381 7.1092 1 3.6 -58.9747 144.719
20 4.27164 7.13817 1 3.8 -61.9126 -171.524
21 4.47105 7.15325 1 4 -57.8148 10.6386
22 4.66907 7.16466 1 4.2 -56.4132 41.6616
23 4.7136 7.16682 1 4.4 -56.7472 131.344
24 4.91318 7.17979 1 4.6 -56.7473 168.101
25 5.11294 7.18937 1 4.8 -60.1119 -85.608
26 5.31283 7.18733 1 5 -59.8073 -67.5578
27 5.51092 7.16037 1 5.2 -58.3191 13.7066
28 5.709 7.13328 1 5.4 -55.0552 59.2634
29 5.90889 7.12956 1 5.6 -54.6474 80.1795
30 6.10886 7.12911 1 5.8 -54.0934 93.1092
31 6.30737 7.10684 1 6 -52.345 154.838
32 6.49871 7.04926 1 6.2 -52.6374 -112.167
33 6.68433 6.97484 1 6.4 -51.41 33.8194
34 6.87057 6.90203 1 6.6 -50.5747 153.875
35 7.06118 6.84152 1 6.8 -50.6218 -109.623
36 7.25318 6.78554 1 7 -52.2687 -35.2054
37 7.44777 6.73954 1 7.2 -53.5593 42.1166
38 7.64632 6.7183 1 7.4 -52.1729 36.7507
39 7.84628 6.72168 1 7.6 -54.5955 -36.8006
40 8.04511 6.70352 1 7.8 -56.3991 -47.5625
41 8.23969 6.65751 1 8 -58.7442 -37.6203
42 8.43288 6.60581 1 8.2 -59.7354 -15.5255
43 8.62794 6.56172 1 8.4 -55.2708 -43.3705
44 8.82376 6.52108 1 8.6 -65.0156 142.385
45 9.01866 6.47628 1 8.8 -57.8943 127.47
46 9.21023 6.41912 1 9 -58.9693 80.2333
47 9.39558 6.34408 1 9.2 -64.726 124.373
48 9.57815 6.26244 1 9.4 -59.0304 -158.946
49 9.76454 6.1902 1 9.6 -61.6466 166.259
50 9.95753 6.13798 1 9.8 -61.7684 51.8094
51 10.152 6.09121 1 10 -60.1947 -36.9739
52 10.3434 6.0334 1 10.2 -61.9419 -123.177
53 10.5363 5.99216 1 10.4 -65.1324 -159.784
54 10.7005 5.92367 1 10.6 -64.4104 -81.4917
55 10.8515 5.79264 1 10.8 -63.8987 -22.0041
56 10.988 5.64668 1 11 -64.3869 -2.60689
57 11.0924 5.47678 1 11.2 -70.7414 153.609
58 11.1623 5.28951 1 11.4 -74.0722 -93.5436
59 11.2166 5.09705 1 11.6 -77.3024 75.7398
60 11.2662 4.9033 1 11.8 -77.4388 -152.069
61 11.2985 4.70628 1 12 -72.8991 -113.531
62 11.3058 4.52798 1 12.2 -79.0085 -18.9577
63 11.3084 4.32799 1 12.4 -75.6875 -123.5
64 11.3161 4.12843 1 12.6 -74.1004 -88.3837
65 11.2684 3.93757 1 12.8 -44.5692 29.3878
66 11.222 3.74633 1 13 -46.2256 162.561
67 11.0842 3.62067 1 13.2 -49.3924 69.4147
68 10.919 3.50947 1 13.4 -55.0336 -176.308
69 10.7848 3.36129 1 13.6 -56.0904 9.81983
70 10.6506 3.21319 1 13.8 -54.2111 -40.8748
71 10.5011 3.08028 1 14 -51.8781 142.152
72 10.3759 2.92577 1 14.2 -52.0652 112.809
73 10.3495 2.72957 1 14.4 -47.9211 151.177
74 10.3523 2.52988 1 14.6 -44.9041 -169.701
75 10.2318 2.38088 1 14.8 -42.5113 -49.8653
76 10.0575 2.29043 1 15 -42.93 -150.107
77 9.86225 2.33134 1 15.2 -46.303 -154.253
78 9.67133 2.39086 1 15.4 -54.1079 91.4883
79 9.48105 2.45243 1 15.6 -49.9386 45.5647
80 9.29013 2.51199 1 15.8 -50.3512 -71.9359
81 9.09748 2.56562 1 16 -62.5743 74.329
82 8.90176 2.60655 1 16.2 -65.2276 10.9751
83 8.70397 2.6361 1 16.4 -52.1704 -38.9971
84 8.50508 2.65705 1 16.6 -55.9148 -111.19
85 8.30568 2.67232 1 16.8 -52.1732 156.024
86 8.10595 2.68204 1 17 -48.532 37.5639
87 7.90601 2.67847 1 17.2 -47.5618 -3.97024
88 7.70608 2.67393 1 17.4 -49.7157 -74.2354
89 7.50633 2.68297 1 17.6 -52.141 177.163
90 7.30711 2.70064 1 17.8 -49.3657 59.3604
91 7.10804 2.71976 1 18 -51.1853 -82.1561
92 6.90869 2.73586 1 18.2 -56.3404 129.667
93 6.7093 2.75152 1 18.4 -55.1106 -2.26356
94 6.5098 2.76552 1 18.6 -58.9881 -13.3706
95 6.31011 2.77668 1 18.8 -49.0585 179.431
96 6.11033 2.786 1 19 -53.5814 31.0762
97 5.91049 2.79383 1 19.2 -54.4087 -114.902
98 5.71058 2.79969 1 19.4 -55.6043 113.214
99 5.51061 2.80264 1 19.6 -60.6661 -11.2609
100 5.31063 2.80064 1 19.8 -57.5826 -44.2506
101 5.11071 2.79502 1 20 -54.4202 -32.9169
102 4.91079 2.78948 1 20.2 -54.7839 116.845
103 4.71082 2.78652 1 20.4 -54.1447 -28.3498
104 4.51083 2.78453 1 20.6 -59.2148 -171.484
105 4.31084 2.783 1 20.8 -64.3471 24.3174
106 4.11086 2.78179 1 21 -67.2892 121.778
107 3.91086 2.78084 1 21.2 -54.4978 -51.2767
108 3.71087 2.78176 1 21.4 -55.1267 -154.189
109 3.51088 2.78382 1 21.6 -61.3743 57.1839
110 3.31089 2.78466 1 21.8 -65.2381 53.742
111 3.11092 2.78175 1 22 -66.6746 -104.707
112 2.9111 2.77344 1 22.2 -68.7245 79.2081
113 2.71146 2.76162 1 22.4 -66.2942 -148.038
114 2.51206 2.74624 1 22.6 -57.8625 51.1732
115 2.31309 2.7261 1 22.8 -60.4714 -84.646
116 2.11522 2.69719 1 23 -63.1327 88.5771
117 1.92099 2.65011 1 23.2 -61.3256 -68.1001
118 1.73261 2.5831 1 23.4 -58.3188 -60.4076
119 1.54519 2.51501 1 23.6 -63.4036 18.9103
120 1.43235 2.35628 1 23.8 -55.1915 -70.8619
121 1.40004 2.15924 1 24 -56.4014 -75.07
122 1.39511 1.95939 1 24.2 -51.8665 -4.35297
123 1.40989 1.76003 1 24.4 -44.901 59.4263
124 1.44647 1.56349 1 24.6 -47.2471 -58.4852
125 1.50314 1.37181 1 24.8 -47.6898 79.5694
126 1.58778 1.19097 1 25 -46.1954 111.172
127 1.72355 1.04659 1 25.2 -57.4697 -143.127
128 1.90939 0.975552 1 25.4 -50.6647 36.8352
129 2.10655 0.942243 1 25.6 -46.6823 -131.523
130 2.30446 0.913701 1 25.8 -44.6353 49.4254
131 2.50385 0.898474 1 26 -45.2627 -127.357
132 2.70369 0.890706 1 26.2 -46.1263 69.1245
133 2.90365 0.886827 1 26.4 -46.5376 -99.1925
134 3.10361 0.88904 1 26.6 -50.8469 84.5916
135 3.30328 0.900211 1 26.8 -54.5265 -32.1089
136 3.50273 0.91506 1 27 -48.9207 178.645
137 3.70173 0.934871 1 27.2 -47.4735 -10.4591
138 3.90041 0.957768 1 27.4 -51.5176 173.317
