#Rx
# X(m), Y(m), Z(m), Distance(m), Power (dBm) Phase (deg)
1 0.609402 6.15212 1 0 -52.0204 68.5555
2 0.800379 6.21151 1 0.2 -47.686 -124.702
3 0.991404 6.27073 1 0.4 -47.9607 29.0594
4 1.18335 6.32688 1 0.6 -51.0619 -152.364
5 1.3769 6.37726 1 0.8 -47.0636 6.76694
6 1.57092 6.42576 1 1 -47.4529 140.129
7 1.76398 6.47792 1 1.2 -47.6211 -59.8968
8 1.95473 6.53799 1 1.4 -49.4238 69.9775
9 2.14355 6.6039 1 1.6 -46.6257 114.836
10 2.33173 6.67162 1 1.8 -42.9064 -106.793
11 2.52059 6.73742 1 2 -49.1201 -29.6925
12 2.71009 6.80135 1 2.2 -44.9554 25.5187
13 2.9001 6.86375 1 2.4 -52.3601 101.021
14 3.0923 6.91896 1 2.6 -52.0895 58.8924
15 3.28767 6.96155 1 2.8 -56.1602 -107.24
16 3.4848 6.99524 1 3 -50.7385 40.8265
17 3.68179 7.02977 1 3.2 -52.4404 -12.1756
18 3.87771 7.06992 1 3.4 -49.2474 -157.036
19 4.07381 7.1092 1 3.6 -55.0629 -36.8542
20 4.27164 7.13817 1 3.8 -52.0896 82.3696
21 4.47105 7.15325 1 4 -52.3569 79.3732
22 4.66907 7.16466 1 4.2 -55.6007 -6.05538
23 4.7136 7.16682 1 4.4 -65.0393 42.1645
24 4.91318 7.17979 1 4.6 -50.5891 9.54411
25 5.11294 7.18937 1 4.8 -48.5903 21.5246
26 5.31283 7.18733 1 5 -49.6468 -153.584
27 5.51092 7.16037 1 5.2 -58.5002 94.5081
28 5.709 7.13328 1 5.4 -50.5629 142.975
29 5.90889 7.12956 1 5.6 -49.7146 119.494
30 6.10886 7.12911 1 5.8 -43.0563 106.524
31 6.30737 7.10684 1 6 -44.3118 65.7326
32 6.49871 7.04926 1 6.2 -40.7832 5.88631
33 6.68433 6.97484 1 6.4 -44.2296 -84.2333
34 6.87057 6.90203 1 6.6 -41.3062 157.78
35 7.06118 6.84152 1 6.8 -42.8958 55.5921
36 7.25318 6.78554 1 7 -45.8464 -91.2385
37 7.44777 6.73954 1 7.2 -47.2912 102.999
38 7.64632 6.7183 1 7.4 -50.8124 -33.9363
39 7.84628 6.72168 1 7.6 -55.1836 143.44
40 8.04511 6.70352 1 7.8 -53.4991 16.4827
41 8.23969 6.65751 1 8 -50.0829 -88.162
42 8.43288 6.60581 1 8.2 -52.5889 90.2379
43 8.62794 6.56172 1 8.4 -49.642 -111.822
44 8.82376 6.52108 1 8.6 -48.2094 119.231
45 9.01866 6.47628 1 8.8 -48.7833 -32.6003
46 9.21023 6.41912 1 9 -50.0088 140.752
47 9.39558 6.34408 1 9.2 -49.0472 -53.393
48 9.57815 6.26244 1 9.4 -47.1087 119.607
49 9.76454 6.1902 1 9.6 -47.2921 -60.1748
50 9.95753 6.13798 1 9.8 -46.8531 114.254
51 10.152 6.09121 1 10 -48.9293 -89.3858
52 10.3434 6.0334 1 10.2 -50.7445 92.1867
53 10.5363 5.99216 1 10.4 -50.9307 -77.0669
54 10.7005 5.92367 1 10.6 -45.2553 144.673
55 10.8515 5.79264 1 10.8 -49.2301 10.7223
56 10.988 5.64668 1 11 -54.0478 -158.999
57 11.0924 5.47678 1 11.2 -46.0702 158.584
58 11.1623 5.28951 1 11.4 -56.2218 149.621
59 11.2166 5.09705 1 11.6 -48.9734 159.33
60 11.2662 4.9033 1 11.8 -54.6749 154.359
61 11.2985 4.70628 1 12 -57.4434 163.499
62 11.3058 4.52798 1 12.2 -55.4628 -78.9702
63 11.3084 4.32799 1 12.4 -52.914 34.3662
64 11.3161 4.12843 1 12.6 -58.9916 -177.762
65 11.2684 3.93757 1 12.8 -69.4909 69.7056
66 11.222 3.74633 1 13 -72.6539 -43.0523
67 11.0842 3.62067 1 13.2 -64.5198 126.316
68 10.919 3.50947 1 13.4 -59.5176 36.929
69 10.7848 3.36129 1 13.6 -60.2407 -3.49237
70 10.6506 3.21319 1 13.8 -61.6165 52.3079
71 10.5011 3.08028 1 14 -57.573 155.917
72 10.3759 2.92577 1 14.2 -56.8611 157.065
73 10.3495 2.72957 1 14.4 -56.577 -169.656
74 10.3523 2.52988 1 14.6 -56.0879 -169.428
75 10.2318 2.38088 1 14.8 -56.7148 148.447
76 10.0575 2.29043 1 15 -55.972 -47.1737
77 9.86225 2.33134 1 15.2 -56.6313 60.4786
78 9.67133 2.39086 1 15.4 -52.9266 -176.692
79 9.48105 2.45243 1 15.6 -57.0181 -57.3154
80 9.29013 2.51199 1 15.8 -55.813 97.3731
81 9.09748 2.56562 1 16 -53.2516 170.337
82 8.90176 2.60655 1 16.2 -56.3174 -75.809
83 8.70397 2.6361 1 16.4 -50.8345 -47.1045
84 8.50508 2.65705 1 16.6 -55.1712 1.45249
85 8.30568 2.67232 1 16.8 -53.8738 12.4105
86 8.10595 2.68204 1 17 -51.9514 8.74966
87 7.90601 2.67847 1 17.2 -58.5366 -66.4941
88 7.70608 2.67393 1 17.4 -64.2411 -129.405
89 7.50633 2.68297 1 17.6 -76.8873 95.5246
90 7.30711 2.70064 1 17.8 -56.6308 140.635
91 7.10804 2.71976 1 18 -49.6349 68.2705
92 6.90869 2.73586 1 18.2 -59.1701 18.7258
93 6.7093 2.75152 1 18.4 -54.8577 -7.71533
94 6.5098 2.76552 1 18.6 -62.6205 72.7349
95 6.31011 2.77668 1 18.8 -57.4505 82.6936
96 6.11033 2.786 1 19 -48.7956 -121.239
97 5.91049 2.79383 1 19.2 -51.5996 75.3561
98 5.71058 2.79969 1 19.4 -57.8711 -13.1575
99 5.51061 2.80264 1 19.6 -55.0429 -158.083
100 5.31063 2.80064 1 19.8 -50.2573 -12.7812
101 5.11071 2.79502 1 20 -45.2522 125.848
102 4.91079 2.78948 1 20.2 -46.6814 -164.28
103 4.71082 2.78652 1 20.4 -50.742 161.877
104 4.51083 2.78453 1 20.6 -42.7124 156.968
105 4.31084 2.783 1 20.8 -46.1772 -134.108
106 4.11086 2.78179 1 21 -42.0288 -159.074
107 3.91086 2.78084 1 21.2 -47.5776 29.3739
108 3.71087 2.78176 1 21.4 -54.1648 -125.352
109 3.51088 2.78382 1 21.6 -56.976 158.819
110 3.31089 2.78466 1 21.8 -56.2253 -125.252
111 3.11092 2.78175 1 22 -59.2549 -10.4023
112 2.9111 2.77344 1 22.2 -57.2364 -17.2445
113 2.71146 2.76162 1 22.4 -56.0611 112.544
114 2.51206 2.74624 1 22.6 -62.1158 -75.3404
115 2.31309 2.7261 1 22.8 -65.3119 66.4401
116 2.11522 2.69719 1 23 -52.4917 114.848
117 1.92099 2.65011 1 23.2 -54.4495 150.028
118 1.73261 2.5831 1 23.4 -58.8964 51.9263
119 1.54519 2.51501 1 23.6 -66.0601 -39.5296
120 1.43235 2.35628 1 23.8 -63.2502 135.603
121 1.40004 2.15924 1 24 -59.9699 -33.3223
122 1.39511 1.95939 1 24.2 -74.361 -152.961
123 1.40989 1.76003 1 24.4 -78.4738 2.54793
124 1.44647 1.56349 1 24.6 -77.9859 -40.757
125 1.50314 1.37181 1 24.8 -73.3923 -101.198
126 1.58778 1.19097 1 25 -83.823 -99.1157
127 1.72355 1.04659 1 25.2 -65.0622 74.798
128 1.90939 0.975552 1 25.4 -71.1602 -17.4996
129 2.10655 0.942243 1 25.6 -59.5974 151.087
130 2.30446 0.913701 1 25.8 -75.0515 -48.6156
131 2.50385 0.898474 1 26 -62.6335 18.7032
132 2.70369 0.890706 1 26.2 -56.7053 -164.345
133 2.90365 0.886827 1 26.4 -66.9442 95.397
134 3.10361 0.88904 1 26.6 -55.9254 46.3017
135 3.30328 0.900211 1 26.8 -50.6911 -76.8382
136 3.50273 0.91506 1 27 -54.0113 134.223
137 3.70173 0.934871 1 27.2 -51.487 22.2426
138 3.90041 0.957768 1 27.4 -50.0543 156.306
