#Rx
# X(m), Y(m), Z(m), Distance(m), Power (dBm) Phase (deg)
1 0.609402 6.15212 1 0 -61.6619 104.44
2 0.800379 6.21151 1 0.2 -70.9566 101.316
3 0.991404 6.27073 1 0.4 -57.0169 146.258
4 1.18335 6.32688 1 0.6 -62.7173 91.036
5 1.3769 6.37726 1 0.8 -62.5971 -83.6065
6 1.57092 6.42576 1 1 -52.8549 84.7428
7 1.76398 6.47792 1 1.2 -51.0514 -123.769
8 1.95473 6.53799 1 1.4 -49.2662 -0.260938
9 2.14355 6.6039 1 1.6 -46.1044 110.051
10 2.33173 6.67162 1 1.8 -49.4139 -156.798
11 2.52059 6.73742 1 2 -49.094 -99.4981
12 2.71009 6.80135 1 2.2 -47.6555 -34.2233
13 2.9001 6.86375 1 2.4 -46.567 35.1155
14 3.0923 6.91896 1 2.6 -47.8745 124.493
15 3.28767 6.96155 1 2.8 -46.7873 165.021
16 3.4848 6.99524 1 3 -55.3127 -110.948
17 3.68179 7.02977 1 3.2 -51.3539 4.62293
18 3.87771 7.06992 1 3.4 -50.1429 62.3349
19 4.07381 7.1092 1 3.6 -62.9423 -64.7977
20 4.27164 7.13817 1 3.8 -59.0085 -150.487
21 4.47105 7.15325 1 4 -68.0439 79.94
22 4.66907 7.16466 1 4.2 -61.3341 -120.552
23 4.7136 7.16682 1 4.4 -75.4058 -154.63
24 4.91318 7.17979 1 4.6 -61.0953 54.8777
25 5.11294 7.18937 1 4.8 -74.4292 -154.647
26 5.31283 7.18733 1 5 -66.2223 160.542
27 5.51092 7.16037 1 5.2 -71.6226 -70.1866
28 5.709 7.13328 1 5.4 -70.462 91.8554
29 5.90889 7.12956 1 5.6 -64.5747 -174.978
30 6.10886 7.12911 1 5.8 -64.0359 -84.1101
31 6.30737 7.10684 1 6 -63.6494 -18.1157
32 6.49871 7.04926 1 6.2 -55.8063 176.105
33 6.68433 6.97484 1 6.4 -54.107 10.7959
34 6.87057 6.90203 1 6.6 -51.287 -177.456
35 7.06118 6.84152 1 6.8 -50.8514 -41.5133
36 7.25318 6.78554 1 7 -53.3887 63.4419
37 7.44777 6.73954 1 7.2 -52.9898 133.476
38 7.64632 6.7183 1 7.4 -52.9515 157.386
39 7.84628 6.72168 1 7.6 -55.6482 131.747
40 8.04511 6.70352 1 7.8 -53.6306 115.163
41 8.23969 6.65751 1 8 -53.2771 166.501
42 8.43288 6.60581 1 8.2 -56.118 -137.847
43 8.62794 6.56172 1 8.4 -57.4827 -124.272
44 8.82376 6.52108 1 8.6 -56.4592 -127.975
45 9.01866 6.47628 1 8.8 -56.5228 -114.358
46 9.21023 6.41912 1 9 -59.2711 -82.284
47 9.39558 6.34408 1 9.2 -60.4382 31.0024
48 9.57815 6.26244 1 9.4 -60.7723 137.217
49 9.76454 6.1902 1 9.6 -64.0007 171.207
50 9.95753 6.13798 1 9.8 -62.2734 -146.914
51 10.152 6.09121 1 10 -61.0014 160.024
52 10.3434 6.0334 1 10.2 -67.5548 135.452
53 10.5363 5.99216 1 10.4 -66.7225 95.8754
54 10.7005 5.92367 1 10.6 -77.9756 -125.643
55 10.8515 5.79264 1 10.8 -74.2543 34.8791
56 10.988 5.64668 1 11 -74.3584 -158.194
57 11.0924 5.47678 1 11.2 -65.7336 106.582
58 11.1623 5.28951 1 11.4 -62.6092 -175.081
59 11.2166 5.09705 1 11.6 -65.9111 -67.2581
60 11.2662 4.9033 1 11.8 -68.3474 102.186
61 11.2985 4.70628 1 12 -59.1401 -145.717
62 11.3058 4.52798 1 12.2 -61.0986 -165.394
63 11.3084 4.32799 1 12.4 -59.1999 58.6666
64 11.3161 4.12843 1 12.6 -65.5869 -50.2114
65 11.2684 3.93757 1 12.8 -50.328 46.5084
66 11.222 3.74633 1 13 -57.4784 39.657
67 11.0842 3.62067 1 13.2 -59.6658 175.424
68 10.919 3.50947 1 13.4 -70.1598 28.9933
69 10.7848 3.36129 1 13.6 -59.3711 -65.7119
70 10.6506 3.21319 1 13.8 -59.392 -59.2854
71 10.5011 3.08028 1 14 -74.2936 -166.341
72 10.3759 2.92577 1 14.2 -53.444 -96.71
73 10.3495 2.72957 1 14.4 -50.4606 152.741
74 10.3523 2.52988 1 14.6 -75.0396 -140.487
75 10.2318 2.38088 1 14.8 -68.4579 46.5182
76 10.0575 2.29043 1 15 -66.248 62.5736
77 9.86225 2.33134 1 15.2 -63.3832 173.91
78 9.67133 2.39086 1 15.4 -58.6764 -92.2923
79 9.48105 2.45243 1 15.6 -56.4055 -179.476
80 9.29013 2.51199 1 15.8 -51.4391 -55.0462
81 9.09748 2.56562 1 16 -52.6427 77.9411
82 8.90176 2.60655 1 16.2 -54.577 -126.064
83 8.70397 2.6361 1 16.4 -54.3268 -139.271
84 8.50508 2.65705 1 16.6 -51.7959 -4.1855
85 8.30568 2.67232 1 16.8 -54.134 125.542
86 8.10595 2.68204 1 17 -57.1048 -67.0726
87 7.90601 2.67847 1 17.2 -56.1103 113.076
88 7.70608 2.67393 1 17.4 -52.8919 -90.2423
89 7.50633 2.68297 1 17.6 -52.8937 23.5215
90 7.30711 2.70064 1 17.8 -55.2633 151.529
91 7.10804 2.71976 1 18 -56.3577 -89.3912
92 6.90869 2.73586 1 18.2 -56.3002 34.5839
93 6.7093 2.75152 1 18.4 -57.6713 -169.502
94 6.5098 2.76552 1 18.6 -61.1054 -21.7512
95 6.31011 2.77668 1 18.8 -60.6407 93.1916
96 6.11033 2.786 1 19 -60.8276 -175.01
97 5.91049 2.79383 1 19.2 -60.5962 -33.8961
98 5.71058 2.79969 1 19.4 -59.3047 74.31
99 5.51061 2.80264 1 19.6 -57.7162 -152.494
100 5.31063 2.80064 1 19.8 -54.5013 -69.5052
101 5.11071 2.79502 1 20 -52.5649 36.7433
102 4.91079 2.78948 1 20.2 -51.1181 134.826
103 4.71082 2.78652 1 20.4 -51.6153 -159.705
104 4.51083 2.78453 1 20.6 -48.9624 -115.587
105 4.31084 2.783 1 20.8 -52.0385 -85.2103
106 4.11086 2.78179 1 21 -53.4526 -10.9002
107 3.91086 2.78084 1 21.2 -51.2039 4.71481
108 3.71087 2.78176 1 21.4 -58.8432 -24.6545
109 3.51088 2.78382 1 21.6 -61.4732 32.7711
110 3.31089 2.78466 1 21.8 -56.4933 -8.35667
111 3.11092 2.78175 1 22 -55.5332 -61.543
112 2.9111 2.77344 1 22.2 -57.4505 -45.1352
113 2.71146 2.76162 1 22.4 -59.9897 -155.028
114 2.51206 2.74624 1 22.6 -52.6243 108.713
115 2.31309 2.7261 1 22.8 -58.4873 -132.735
116 2.11522 2.69719 1 23 -43.7629 -0.963318
117 1.92099 2.65011 1 23.2 -42.5545 -80.3728
118 1.73261 2.5831 1 23.4 -41.4295 -156.153
119 1.54519 2.51501 1 23.6 -42.9589 109.138
120 1.43235 2.35628 1 23.8 -42.4561 144.15
121 1.40004 2.15924 1 24 -42.4784 -144.384
122 1.39511 1.95939 1 24.2 -42.207 99.323
123 1.40989 1.76003 1 24.4 -48.7149 128.91
124 1.44647 1.56349 1 24.6 -47.8158 133.459
125 1.50314 1.37181 1 24.8 -51.248 77.6272
126 1.58778 1.19097 1 25 -50.8113 -41.4907
127 1.72355 1.04659 1 25.2 -49.3629 79.2812
128 1.90939 0.975552 1 25.4 -54.2646 55.9978
129 2.10655 0.942243 1 25.6 -53.8866 61.1794
130 2.30446 0.913701 1 25.8 -57.9464 64.6984
131 2.50385 0.898474 1 26 -47.6625 -135.509
132 2.70369 0.890706 1 26.2 -50.5266 -168.21
133 2.90365 0.886827 1 26.4 -43.7783 -78.6631
134 3.10361 0.88904 1 26.6 -43.534 -138.133
135 3.30328 0.900211 1 26.8 -42.824 -177.079
136 3.50273 0.91506 1 27 -45.0546 140.822
137 3.70173 0.934871 1 27.2 -43.122 23.5947
138 3.90041 0.957768 1 27.4 -42.8391 -92.7574
