#Rx
# X(m), Y(m), Z(m), Distance(m), Power (dBm) Phase (deg)
1 0.110705 4.12118 1 6.01824 -51.3073 -17.9023
2 0.310705 4.12118 1 5.8762 -52.0467 -6.90687
3 0.510705 4.12118 1 5.73761 -47.0386 35.5329
4 0.710705 4.12118 1 5.60274 -51.1746 78.949
5 0.910705 4.12118 1 5.47185 -48.6915 73.6927
6 1.1107 4.12118 1 5.34524 -51.1889 110.207
7 1.3107 4.12118 1 5.22323 -52.9178 78.7505
8 1.5107 4.12118 1 5.10613 -56.123 97.9173
9 1.7107 4.12118 1 4.9943 -51.284 23.1647
10 1.9107 4.12118 1 4.8881 -50.5891 -37.0979
11 0.110705 4.32118 1 5.8947 -51.2812 -61.7146
12 0.310705 4.32118 1 5.7496 -47.0759 11.2482
13 0.510705 4.32118 1 5.60789 -52.2772 61.6396
14 0.710705 4.32118 1 5.46982 -48.179 77.393
15 0.910705 4.32118 1 5.33567 -51.0837 129.987
16 1.1107 4.32118 1 5.20575 -52.2159 125.479
17 1.3107 4.32118 1 5.08039 -48.5441 155.957
18 1.5107 4.32118 1 4.95992 -51.457 111.484
19 1.7107 4.32118 1 4.84472 -53.757 84.5208
20 1.9107 4.32118 1 4.73516 -53.5321 17.0739
21 0.110705 4.52118 1 5.77544 -51.9653 -54.6835
22 0.310705 4.52118 1 5.62727 -54.5647 -35.2913
23 0.510705 4.52118 1 5.48239 -49.4915 27.4761
24 0.710705 4.52118 1 5.34108 -49.6219 109.273
25 0.910705 4.52118 1 5.20361 -51.1573 128.529
26 1.1107 4.52118 1 5.07031 -47.8096 176.978
27 1.3107 4.52118 1 4.94151 -51.3394 160.106
28 1.5107 4.52118 1 4.81758 -50.3013 172.234
29 1.7107 4.52118 1 4.69888 -56.3521 165.754
30 1.9107 4.52118 1 4.58585 -54.4215 137.675
31 0.110705 4.72118 1 5.66073 -55.574 -113.795
32 0.310705 4.72118 1 5.50948 -52.7177 -30.9588
33 0.510705 4.72118 1 5.36142 -59.6326 73.9096
34 0.710705 4.72118 1 5.21683 -53.8304 85.9437
35 0.910705 4.72118 1 5.07601 -49.1285 136.287
36 1.1107 4.72118 1 4.93926 -51.5601 -177.673
37 1.3107 4.72118 1 4.80695 -49.567 -164.559
38 1.5107 4.72118 1 4.67945 -52.5331 -138.116
39 1.7107 4.72118 1 4.55717 -51.4887 -166.705
40 1.9107 4.72118 1 4.44052 -60.2043 -171.853
41 0.110705 4.92118 1 5.55087 -55.6379 -127.836
42 0.310705 4.92118 1 5.39654 -59.9856 -60.0234
43 0.510705 4.92118 1 5.24529 -52.935 31.207
44 0.710705 4.92118 1 5.09741 -52.5766 91.3047
45 0.910705 4.92118 1 4.95319 -52.0217 145.646
46 1.1107 4.92118 1 4.81296 -52.0049 179.038
47 1.3107 4.92118 1 4.67707 -49.2788 -131.414
48 1.5107 4.92118 1 4.54593 -51.0805 -141.303
49 1.7107 4.92118 1 4.41995 -52.5884 -98.7182
50 1.9107 4.92118 1 4.29959 -51.8389 -141.32
51 0.110705 5.12118 1 5.44613 -56.7638 122.216
52 0.310705 5.12118 1 5.28875 -54.8349 -106.534
53 0.510705 5.12118 1 5.13433 -52.8553 -27.5816
54 0.710705 5.12118 1 4.98315 -55.4385 51.0363
55 0.910705 5.12118 1 4.83553 -50.7454 115.033
56 1.1107 5.12118 1 4.69178 -52.9092 155.918
57 1.3107 5.12118 1 4.55228 -48.6134 -142.186
58 1.5107 5.12118 1 4.41744 -49.8416 -110.677
59 1.7107 5.12118 1 4.28768 -51.811 -119.184
60 1.9107 5.12118 1 4.1635 -51.8746 -113.156
61 0.110705 5.32118 1 5.34683 -62.1742 20.4685
62 0.310705 5.32118 1 5.18643 -54.4068 147.622
63 0.510705 5.32118 1 5.02887 -52.2666 -120.668
64 0.710705 5.32118 1 4.87443 -54.4582 -8.93203
65 0.910705 5.32118 1 4.7234 -56.629 71.4661
66 1.1107 5.32118 1 4.57614 -52.9225 141.81
67 1.3107 5.32118 1 4.433 -54.9564 165.163
68 1.5107 5.32118 1 4.29441 -47.741 -142.844
69 1.7107 5.32118 1 4.16082 -53.3767 -103.709
70 1.9107 5.32118 1 4.03273 -61.4987 -71.4387
71 0.110705 5.52118 1 5.25327 -54.7525 -73.1637
72 0.310705 5.52118 1 5.08992 -51.8532 46.3553
73 0.510705 5.52118 1 4.92928 -53.4249 145.72
74 0.710705 5.52118 1 4.77161 -61.7497 -129.329
75 0.910705 5.52118 1 4.61723 -56.4526 8.54127
76 1.1107 5.52118 1 4.46646 -52.85 95.0334
77 1.3107 5.52118 1 4.31969 -60.943 157.795
78 1.5107 5.52118 1 4.17735 -55.1057 -126.003
79 1.7107 5.52118 1 4.03989 -53.2775 -109.68
80 1.9107 5.52118 1 3.90783 -50.2695 -68.7566
81 0.110705 5.72118 1 5.16576 -52.1392 174.362
82 0.310705 5.72118 1 4.99956 -49.402 -88.7108
83 0.510705 5.72118 1 4.83591 -48.0484 26.6281
84 0.710705 5.72118 1 4.6751 -55.9309 -161.139
85 0.910705 5.72118 1 4.51741 -59.1668 -59.2518
86 1.1107 5.72118 1 4.3632 -52.2185 -16.1428
87 1.3107 5.72118 1 4.21283 -57.0756 127.37
88 1.5107 5.72118 1 4.06675 -62.6383 -130.096
89 1.7107 5.72118 1 3.92542 -48.8804 -133.767
90 1.9107 5.72118 1 3.78938 -54.668 -139.871
91 0.110705 5.92118 1 5.08462 -46.8314 44.9026
92 0.310705 5.92118 1 4.91567 -48.1353 159.36
93 0.510705 5.92118 1 4.74913 -49.5513 -108.63
94 0.710705 5.92118 1 4.58528 -51.6566 43.6363
95 0.910705 5.92118 1 4.42439 -49.6244 178.086
96 1.1107 5.92118 1 4.26682 -56.8207 -117.363
97 1.3107 5.92118 1 4.11293 -57.1919 19.6441
98 1.5107 5.92118 1 3.96317 -52.784 148.942
99 1.7107 5.92118 1 3.818 -58.6032 144.242
100 1.9107 5.92118 1 3.67799 -54.0842 -171.946
101 0.110705 6.12118 1 5.01015 -47.4663 -110.017
102 0.310705 6.12118 1 4.8386 -46.3241 9.94064
103 0.510705 6.12118 1 4.66932 -49.3574 139.305
104 0.710705 6.12118 1 4.50255 -51.116 -72.958
105 0.910705 6.12118 1 4.3386 -47.7368 51.8568
106 1.1107 6.12118 1 4.17779 -52.3024 128.136
107 1.3107 6.12118 1 4.0205 -52.0849 -83.0021
108 1.5107 6.12118 1 3.86716 -52.02 19.6438
109 1.7107 6.12118 1 3.71825 -55.2072 68.1561
110 1.9107 6.12118 1 3.57434 -59.7023 155.231
111 0.110705 6.32118 1 4.94265 -46.6779 85.8867
112 0.310705 6.32118 1 4.76868 -46.1365 -158.55
113 0.510705 6.32118 1 4.59682 -48.4232 -2.76022
114 0.710705 6.32118 1 4.42733 -47.0183 145.525
115 0.910705 6.32118 1 4.26048 -46.9296 -106.538
116 1.1107 6.32118 1 4.09661 -50.6534 14.3462
117 1.3107 6.32118 1 3.93607 -49.7078 155.505
118 1.5107 6.32118 1 3.77931 -50.1111 -114.787
119 1.7107 6.32118 1 3.62679 -50.4381 -23.8179
120 1.9107 6.32118 1 3.4791 -51.4771 61.2971
121 0.110705 6.52118 1 4.88242 -48.2054 -87.3277
122 0.310705 6.52118 1 4.70622 -49.3318 15.2543
123 0.510705 6.52118 1 4.532 -48.5038 -179.586
124 0.710705 6.52118 1 4.35998 -45.1934 -32.2325
125 0.910705 6.52118 1 4.19046 -46.2298 90.2525
126 1.1107 6.52118 1 4.02373 -53.0983 -121.297
127 1.3107 6.52118 1 3.86017 -48.0617 5.86142
128 1.5107 6.52118 1 3.70019 -48.1052 113.207
129 1.7107 6.52118 1 3.54427 -48.4622 -139.05
130 1.9107 6.52118 1 3.39298 -46.6836 -64.7759
131 0.110705 6.72118 1 4.82973 -47.2764 74.1445
132 0.310705 6.72118 1 4.65153 -54.0976 -121.669
133 0.510705 6.72118 1 4.47518 -55.6077 -7.48983
134 0.710705 6.72118 1 4.3009 -46.051 127.328
135 0.910705 6.72118 1 4.12894 -47.9044 -92.7894
136 1.1107 6.72118 1 3.95963 -49.6796 72.1098
137 1.3107 6.72118 1 3.7933 -44.949 -158.707
138 1.5107 6.72118 1 3.63037 -45.5072 -10.0455
139 1.7107 6.72118 1 3.47133 -46.1563 91.8099
140 1.9107 6.72118 1 3.31671 -46.9846 151.21
141 0.110705 6.92118 1 4.78482 -47.8047 -131.925
142 0.310705 6.92118 1 4.60489 -53.8945 30.8241
143 0.510705 6.92118 1 4.42668 -50.8676 -151.489
144 0.710705 6.92118 1 4.2504 -52.1257 -76.1296
145 0.910705 6.92118 1 4.07632 -51.6654 -13.6646
146 1.1107 6.92118 1 3.90473 -51.3333 -175.431
147 1.3107 6.92118 1 3.73596 -46.2379 -18.0594
148 1.5107 6.92118 1 3.57041 -43.4968 135.15
149 1.7107 6.92118 1 3.40857 -41.7458 -92.1022
150 1.9107 6.92118 1 3.25097 -42.5822 -1.4092
151 0.110705 7.12118 1 4.74792 -47.3063 27.9968
152 0.310705 7.12118 1 4.56653 -45.8458 -174.548
153 0.510705 7.12118 1 4.38676 -43.9993 -20.4556
154 0.710705 7.12118 1 4.20882 -49.5093 123.994
155 0.910705 7.12118 1 4.03295 -55.5251 -87.099
156 1.1107 7.12118 1 3.85942 -49.2956 20.6013
157 1.3107 7.12118 1 3.68858 -47.7531 132.455
158 1.5107 7.12118 1 3.52081 -46.3286 -96.9562
159 1.7107 7.12118 1 3.35657 -44.0669 36.4959
160 1.9107 7.12118 1 3.19641 -41.3684 146.896
161 0.110705 7.32118 1 4.71921 -44.3897 95.4671
162 0.310705 7.32118 1 4.53668 -44.8784 -75.1461
163 0.510705 7.32118 1 4.35568 -44.6046 75.7971
164 0.710705 7.32118 1 4.17641 -48.4854 -134.973
165 0.910705 7.32118 1 3.99911 -49.6026 18.7079
166 1.1107 7.32118 1 3.82405 -49.0454 148.941
167 1.3107 7.32118 1 3.65155 -50.7934 -96.5738
168 1.5107 7.32118 1 3.482 -49.212 36.9923
169 1.7107 7.32118 1 3.31584 -45.3759 168.201
170 1.9107 7.32118 1 3.15361 -42.3392 -82.0463
171 0.110705 7.52118 1 4.69885 -48.5084 164.182
172 0.310705 7.52118 1 4.51549 -47.0801 -2.14835
173 0.510705 7.52118 1 4.33361 -46.9663 135.971
174 0.710705 7.52118 1 4.15339 -46.8272 -47.3449
175 0.910705 7.52118 1 3.97506 -50.3411 137.724
176 1.1107 7.52118 1 3.79889 -52.5179 -132.212
177 1.3107 7.52118 1 3.6252 -51.4667 17.2532
178 1.5107 7.52118 1 3.45435 -53.0508 168.547
179 1.7107 7.52118 1 3.2868 -47.0257 -81.786
180 1.9107 7.52118 1 3.12306 -47.6575 27.8536
181 0.110705 7.72118 1 4.68694 -51.2317 -134.809
182 0.310705 7.72118 1 4.5031 -51.5907 28.8046
183 0.510705 7.72118 1 4.32069 -51.0443 -153.302
184 0.710705 7.72118 1 4.13991 -51.8933 -14.7541
185 0.910705 7.72118 1 3.96098 -50.8204 159.108
186 1.1107 7.72118 1 3.78416 -51.9326 -70.5019
187 1.3107 7.72118 1 3.60975 -53.228 84.3367
188 1.5107 7.72118 1 3.43814 -52.0236 -111.218
189 1.7107 7.72118 1 3.26975 -51.0138 -6.182
190 1.9107 7.72118 1 3.10512 -53.0137 96.8769
