#Rx
# X(m), Y(m), Z(m), Distance(m), Power (dBm) Phase (deg)
1 9.79195 4.11542 1 4.4681 -63.7025 -168.896
2 9.99195 4.11542 1 4.65151 -67.9742 95.6692
3 10.1919 4.11542 1 4.83623 -60.7339 166.378
4 10.3919 4.11542 1 5.02213 -52.3391 44.0168
5 10.5919 4.11542 1 5.20907 -48.4221 -88.6391
6 10.7919 4.11542 1 5.39695 -47.1462 73.1539
7 10.9919 4.11542 1 5.58566 -48.8634 -52.3617
8 11.1919 4.11542 1 5.77514 -47.6957 108.658
9 11.3919 4.11542 1 5.96531 -52.6084 -83.2259
10 11.5919 4.11542 1 6.15609 -55.7972 15.4293
11 11.7919 4.11542 1 6.34745 -52.1663 -146.477
12 9.79195 4.31542 1 4.48395 -54.588 146.486
13 9.99195 4.31542 1 4.66674 -52.9233 -46.3513
14 10.1919 4.31542 1 4.85088 -58.8636 149.231
15 10.3919 4.31542 1 5.03623 -56.7176 35.0559
16 10.5919 4.31542 1 5.22267 -63.0185 -121.498
17 10.7919 4.31542 1 5.41007 -73.9527 -14.6364
18 10.9919 4.31542 1 5.59835 -64.2321 17.2581
19 11.1919 4.31542 1 5.78741 -50.3854 -59.5701
20 11.3919 4.31542 1 5.97719 -51.0899 179.164
21 11.5919 4.31542 1 6.16761 -53.312 -33.8488
22 11.7919 4.31542 1 6.35862 -65.1606 176.945
23 9.79195 4.51542 1 4.50862 -57.321 34.6643
24 9.99195 4.51542 1 4.69045 -65.7394 -172.946
25 10.1919 4.51542 1 4.8737 -53.2028 82.9623
26 10.3919 4.51542 1 5.05821 -65.3578 -55.5406
27 10.5919 4.51542 1 5.24387 -58.142 156.842
28 10.7919 4.51542 1 5.43054 -56.1405 -29.6099
29 10.9919 4.51542 1 5.61813 -66.577 -168.319
30 11.1919 4.51542 1 5.80655 -52.4801 -38.7255
31 11.3919 4.51542 1 5.99572 -57.1248 175.752
32 11.5919 4.51542 1 6.18557 -59.8183 162.253
33 11.7919 4.51542 1 6.37604 -62.4054 -77.9996
34 9.79195 4.71542 1 4.54198 -53.2519 -38.6336
35 9.99195 4.71542 1 4.72252 -55.9096 123.594
36 10.1919 4.71542 1 4.90457 -55.3224 -32.6179
37 10.3919 4.71542 1 5.08797 -66.7195 173.852
38 10.5919 4.71542 1 5.27257 -54.4436 -6.56395
39 10.7919 4.71542 1 5.45826 -63.3531 -132.955
40 10.9919 4.71542 1 5.64493 -59.3891 38.5955
41 11.1919 4.71542 1 5.83249 -57.1093 -131.017
42 11.3919 4.71542 1 6.02084 -68.5284 91.7482
43 11.5919 4.71542 1 6.20992 -55.1338 -175.598
44 11.7919 4.71542 1 6.39967 -55.9822 54.5828
45 9.79195 4.91542 1 4.58382 -55.5141 -173.76
46 9.99195 4.91542 1 4.76278 -54.4988 0.432926
47 10.1919 4.91542 1 4.94335 -57.509 -131.717
48 10.3919 4.91542 1 5.12536 -54.6877 30.4218
49 10.5919 4.91542 1 5.30866 -59.0378 -129.411
50 10.7919 4.91542 1 5.49313 -68.5477 171.533
51 10.9919 4.91542 1 5.67866 -58.5595 -115.996
52 11.1919 4.91542 1 5.86513 -84.7968 55.1479
53 11.3919 4.91542 1 6.05247 -64.6459 -57.0929
54 11.5919 4.91542 1 6.24059 -56.4661 155.468
55 11.7919 4.91542 1 6.42943 -58.7524 24.2365
56 9.79195 5.11542 1 4.63393 -57.4197 -0.73021
57 9.99195 5.11542 1 4.81102 -61.3347 -153.97
58 10.1919 5.11542 1 4.98984 -60.1918 86.3765
59 10.3919 5.11542 1 5.17022 -60.1091 -76.7537
60 10.5919 5.11542 1 5.35199 -59.7741 172.387
61 10.7919 5.11542 1 5.53502 -58.2306 -75.7177
62 10.9919 5.11542 1 5.71918 -61.7191 157.49
63 11.1919 5.11542 1 5.90438 -76.3644 17.8436
64 11.3919 5.11542 1 6.09051 -69.7236 -102.712
65 11.5919 5.11542 1 6.27749 -61.7666 90.3186
66 11.7919 5.11542 1 6.46525 -63.0489 73.5207
67 9.79195 5.31542 1 4.69203 -64.9665 -172.323
68 9.99195 5.31542 1 4.86701 -59.0249 48.3393
69 10.1919 5.31542 1 5.04385 -62.3877 -95.6596
70 10.3919 5.31542 1 5.22236 -59.0441 -176.823
71 10.5919 5.31542 1 5.40238 -60.2496 -49.5739
72 10.7919 5.31542 1 5.58375 -64.8 -168.157
73 10.9919 5.31542 1 5.76636 -62.1938 17.2416
74 11.1919 5.31542 1 5.95009 -62.1505 151.559
75 11.3919 5.31542 1 6.13483 -57.9903 38.2221
76 11.5919 5.31542 1 6.3205 -60.024 165.208
77 11.7919 5.31542 1 6.50703 -64.5972 93.9623
78 9.79195 5.51542 1 4.75784 -62.3868 -29.3346
79 9.99195 5.51542 1 4.93049 -54.0005 -106.118
80 10.1919 5.51542 1 5.10513 -59.7264 99.4506
81 10.3919 5.51542 1 5.28156 -58.1397 -27.3909
82 10.5919 5.51542 1 5.45963 -57.033 144.282
83 10.7919 5.51542 1 5.63916 -64.0516 50.3827
84 10.9919 5.51542 1 5.82003 -63.876 175.912
85 11.1919 5.51542 1 6.00212 -57.9202 79.9674
86 11.3919 5.51542 1 6.18531 -62.9093 -114.298
87 11.5919 5.51542 1 6.36951 -61.8898 47.851
88 11.7919 5.51542 1 6.55464 -67.4197 -148.17
89 9.79195 5.71542 1 4.83104 -54.8544 138.938
90 9.99195 5.71542 1 5.00116 -58.1147 36.313
91 10.1919 5.71542 1 5.17341 -59.8941 -57.2049
92 10.3919 5.71542 1 5.3476 -56.1002 138.029
93 10.5919 5.71542 1 5.52353 -56.2037 2.98883
94 10.7919 5.71542 1 5.70106 -54.9097 170.9
95 10.9919 5.71542 1 5.88002 -62.9754 54.9364
96 11.1919 5.71542 1 6.0603 -58.8419 -114.27
97 11.3919 5.71542 1 6.24179 -60.7801 49.0878
98 11.5919 5.71542 1 6.42437 -59.4499 -69.9372
99 11.7919 5.71542 1 6.60796 -63.9508 140.025
100 9.79195 5.91542 1 4.91129 -55.5777 -68.5876
101 9.99195 5.91542 1 5.07872 -52.474 149.524
102 10.1919 5.91542 1 5.24843 -57.8021 79.4105
103 10.3919 5.91542 1 5.42021 -64.8093 -132.796
104 10.5919 5.91542 1 5.59386 -57.8057 179.009
105 10.7919 5.91542 1 5.76922 -53.0834 1.64193
106 10.9919 5.91542 1 5.94614 -55.2644 -117.897
107 11.1919 5.91542 1 6.12447 -54.4792 32.4447
108 11.3919 5.91542 1 6.30411 -55.1452 -108.218
109 11.5919 5.91542 1 6.48494 -62.2148 30.4637
110 11.7919 5.91542 1 6.66686 -58.0988 -64.1788
111 9.79195 6.11542 1 4.99827 -49.8949 38.2408
112 9.99195 6.11542 1 5.16288 -53.4138 -82.7564
113 10.1919 6.11542 1 5.32991 -58.8598 155.167
114 10.3919 6.11542 1 5.49914 -57.8161 8.66692
115 10.5919 6.11542 1 5.67038 -60.5583 -102.012
116 10.7919 6.11542 1 5.84344 -59.9062 175.499
117 10.9919 6.11542 1 6.01817 -56.7536 12.4352
118 11.1919 6.11542 1 6.19444 -53.8566 -107.749
119 11.3919 6.11542 1 6.3721 -54.8794 45.5977
120 11.5919 6.11542 1 6.55105 -54.3038 -108.497
121 11.7919 6.11542 1 6.73119 -58.6863 81.6042
122 9.79195 6.31542 1 5.09162 -50.2452 150.702
123 9.99195 6.31542 1 5.2533 -53.426 20.6311
124 10.1919 6.31542 1 5.41755 -50.3472 -112.006
125 10.3919 6.31542 1 5.58412 -61.8924 114.579
126 10.5919 6.31542 1 5.75283 -53.1854 -1.3016
127 10.7919 6.31542 1 5.92348 -56.7277 -77.9627
128 10.9919 6.31542 1 6.09592 -65.066 124.923
129 11.1919 6.31542 1 6.27 -59.0621 15.331
130 11.3919 6.31542 1 6.44558 -59.6615 -137.848
131 11.5919 6.31542 1 6.62255 -56.1913 69.4528
132 11.7919 6.31542 1 6.80079 -58.8294 -102.965
133 9.79195 6.51542 1 5.191 -54.0031 172.234
134 9.99195 6.51542 1 5.34968 -52.652 152.569
135 10.1919 6.51542 1 5.51105 -50.7748 -7.75034
136 10.3919 6.51542 1 5.67488 -52.3288 -103.892
137 10.5919 6.51542 1 5.84097 -53.813 106.456
138 10.7919 6.51542 1 6.00912 -55.0861 9.47734
139 10.9919 6.51542 1 6.17917 -62.9411 -85.5716
140 11.1919 6.51542 1 6.35097 -58.1568 89.3345
141 11.3919 6.51542 1 6.52437 -59.2274 -20.6278
142 11.5919 6.51542 1 6.69926 -58.2667 160.042
143 11.7919 6.51542 1 6.87551 -56.9344 64.24
144 9.79195 6.71542 1 5.29607 -55.2295 -107.867
145 9.99195 6.71542 1 5.45169 -57.6441 138.306
146 10.1919 6.71542 1 5.61013 -56.556 94.6493
147 10.3919 6.71542 1 5.77115 -53.1096 -23.1853
148 10.5919 6.71542 1 5.93454 -51.476 -144.706
149 10.7919 6.71542 1 6.10012 -54.1361 110.26
150 10.9919 6.71542 1 6.2677 -58.7988 -32.1616
151 11.1919 6.71542 1 6.43713 -56.9569 -131.404
152 11.3919 6.71542 1 6.60827 -60.699 83.0171
153 11.5919 6.71542 1 6.781 -57.3104 -91.156
154 11.7919 6.71542 1 6.95518 -53.5602 161.895
155 9.79195 6.91542 1 5.4065 -54.7585 -78.1597
156 9.99195 6.91542 1 5.55903 -52.3636 -150.301
157 10.1919 6.91542 1 5.71449 -54.6484 109.451
158 10.3919 6.91542 1 5.87265 -52.0589 35.5736
159 10.5919 6.91542 1 6.0333 -56.4408 -44.4942
160 10.7919 6.91542 1 6.19623 -50.3504 170.842
161 10.9919 6.91542 1 6.36128 -54.7113 73.3626
162 11.1919 6.91542 1 6.52829 -58.0063 -44.0815
163 11.3919 6.91542 1 6.6971 -54.4038 -169.066
164 11.5919 6.91542 1 6.86759 -56.5268 41.8846
165 11.7919 6.91542 1 7.03963 -58.9129 -122.832
166 9.79195 7.11542 1 5.52196 -55.2431 -76.9652
167 9.99195 7.11542 1 5.67139 -52.7057 -132.934
168 10.1919 7.11542 1 5.82386 -52.5803 176.813
169 10.3919 7.11542 1 5.97913 -53.3466 89.2995
170 10.5919 7.11542 1 6.13698 -57.3126 6.49288
171 10.7919 7.11542 1 6.29724 -57.1804 -116.1
172 10.9919 7.11542 1 6.45971 -50.8376 132.215
173 11.1919 7.11542 1 6.62423 -54.1601 27.4318
174 11.3919 7.11542 1 6.79066 -56.1203 -67.6466
175 11.5919 7.11542 1 6.95886 -53.4028 164.857
176 11.7919 7.11542 1 7.12869 -55.4681 -12.2117
177 9.79195 7.31542 1 5.64216 -48.8614 -43.7563
178 9.99195 7.31542 1 5.78849 -55.3123 -115.912
179 10.1919 7.31542 1 5.93795 -50.612 -173.022
180 10.3919 7.31542 1 6.09031 -57.7557 135.611
181 10.5919 7.31542 1 6.24535 -55.5438 51.5308
182 10.7919 7.31542 1 6.40289 -55.5234 -57.0844
183 10.9919 7.31542 1 6.56275 -51.5859 -147.436
184 11.1919 7.31542 1 6.72475 -54.0898 73.5771
185 11.3919 7.31542 1 6.88875 -51.3914 -15.2064
186 11.5919 7.31542 1 7.05461 -52.1403 -107.748
187 11.7919 7.31542 1 7.2222 -54.3119 116.754
188 9.79195 7.51542 1 5.76679 -53.2312 -60.3578
189 9.99195 7.51542 1 5.91003 -48.4853 -83.7463
190 10.1919 7.51542 1 6.05649 -59.6317 -138.365
191 10.3919 7.51542 1 6.20594 -52.3253 150.065
192 10.5919 7.51542 1 6.35817 -60.3878 42.4517
193 10.7919 7.51542 1 6.51298 -69.3284 -39.7975
194 10.9919 7.51542 1 6.6702 -53.0004 -115.952
195 11.1919 7.51542 1 6.82965 -54.1383 130.285
196 11.3919 7.51542 1 6.99119 -53.2209 35.5913
197 11.5919 7.51542 1 7.15468 -51.7023 -58.3358
198 11.7919 7.51542 1 7.31998 -52.2942 -172.326
199 9.79195 7.71542 1 5.89557 -48.8729 -44.5036
200 9.99195 7.71542 1 6.03575 -55.118 -95.2492
201 10.1919 7.71542 1 6.17924 -50.1515 -140.89
202 10.3919 7.71542 1 6.32579 -59.2354 173.366
203 10.5919 7.71542 1 6.4752 -55.1606 89.3048
204 10.7919 7.71542 1 6.62728 -55.7721 -8.92592
205 10.9919 7.71542 1 6.78185 -85.3459 9.10292
206 11.1919 7.71542 1 6.93874 -54.9766 179.46
207 11.3919 7.71542 1 7.09779 -55.8118 80.2643
208 11.5919 7.71542 1 7.25888 -54.0653 23.5923
209 11.7919 7.71542 1 7.42185 -51.8888 -130.276
