#Rx
# X(m), Y(m), Z(m), Distance(m), Power (dBm) Phase (deg)
1 4.88642 0.149652 1 4.3609 -56.1209 46.484
2 5.08642 0.149652 1 4.1818 -54.0089 -73.1589
3 5.28642 0.149652 1 4.00467 -50.785 85.9149
4 5.48642 0.149652 1 3.8298 -59.3685 92.738
5 5.68642 0.149652 1 3.65751 -57.1593 -65.9856
6 5.88642 0.149652 1 3.48817 -46.0082 74.8948
7 6.08642 0.149652 1 3.32224 -47.6839 -143.994
8 6.28642 0.149652 1 3.16026 -45.6425 -29.2929
9 6.48642 0.149652 1 3.00287 -50.4287 55.8388
10 4.88642 0.349652 1 4.36388 -47.3364 47.7405
11 5.08642 0.349652 1 4.1849 -46.6418 -113.274
12 5.28642 0.349652 1 4.00791 -43.1456 1.26807
13 5.48642 0.349652 1 3.83319 -44.4278 156.874
14 5.68642 0.349652 1 3.66105 -43.6099 -50.5556
15 5.88642 0.349652 1 3.49189 -43.2119 61.8736
16 6.08642 0.349652 1 3.32614 -45.6842 169.68
17 6.28642 0.349652 1 3.16436 -40.7918 -87.4098
18 6.48642 0.349652 1 3.00719 -41.4163 9.05278
19 4.88642 0.549652 1 4.376 -47.2563 -32.4043
20 5.08642 0.549652 1 4.19754 -47.7476 166.557
21 5.28642 0.549652 1 4.02111 -42.027 -48.3373
22 5.48642 0.549652 1 3.84698 -45.0762 60.6351
23 5.68642 0.549652 1 3.67549 -42.095 -139.095
24 5.88642 0.549652 1 3.50702 -40.8308 -11.3421
25 6.08642 0.549652 1 3.34203 -42.7333 97.9264
26 6.28642 0.549652 1 3.18106 -40.6074 -155.583
27 6.48642 0.549652 1 3.02475 -44.1824 -80.717
28 4.88642 0.749652 1 4.39719 -42.5699 -91.6686
29 5.08642 0.749652 1 4.21963 -46.0006 60.0233
30 5.28642 0.749652 1 4.04416 -39.7636 -130.987
31 5.48642 0.749652 1 3.87107 -42.1823 4.43583
32 5.68642 0.749652 1 3.7007 -47.8532 144.642
33 5.88642 0.749652 1 3.53343 -43.1801 -127.773
34 6.08642 0.749652 1 3.36974 -44.2786 -19.8056
35 6.28642 0.749652 1 3.21015 -43.1969 108.959
36 6.48642 0.749652 1 3.05533 -50.5944 139.143
37 4.88642 0.949652 1 4.42733 -42.5572 165.588
38 5.08642 0.949652 1 4.25103 -45.7156 -41.9229
39 5.28642 0.949652 1 4.07691 -44.4185 102.415
40 5.48642 0.949652 1 3.90527 -43.928 -123.253
41 5.68642 0.949652 1 3.73646 -46.3364 44.5079
42 5.88642 0.949652 1 3.57087 -46.8565 94.8281
43 6.08642 0.949652 1 3.40897 -48.8344 -141.364
44 6.28642 0.949652 1 3.25131 -56.2225 37.5017
45 6.48642 0.949652 1 3.09855 -53.392 -20.5349
46 4.88642 1.14965 1 4.46623 -49.325 57.6979
47 5.08642 1.14965 1 4.29152 -51.2589 -143.013
48 5.28642 1.14965 1 4.11912 -51.7095 47.84
49 5.48642 1.14965 1 3.94932 -48.0556 6.28273
50 5.68642 1.14965 1 3.78247 -52.0562 88.9875
51 5.88642 1.14965 1 3.61898 -49.5361 2.17133
52 6.08642 1.14965 1 3.45934 -54.697 126.936
53 6.28642 1.14965 1 3.30408 -51.8367 -102.722
54 6.48642 1.14965 1 3.15388 -46.1577 -72.8213
55 4.88642 1.34965 1 4.51366 -51.8056 29.7542
56 5.08642 1.34965 1 4.34086 -50.2779 -128.051
57 5.28642 1.34965 1 4.1705 -50.3 -24.9425
58 5.48642 1.34965 1 4.00288 -56.9923 -145.761
59 5.68642 1.34965 1 3.83836 -55.5663 -4.95334
60 5.88642 1.34965 1 3.67736 -48.2801 -93.0535
61 6.08642 1.34965 1 3.52036 -54.7785 4.6481
62 6.28642 1.34965 1 3.36792 -40.239 68.0963
63 6.48642 1.34965 1 3.2207 -44.7706 146.325
64 4.88642 1.54965 1 4.56936 -59.6003 84.1913
65 5.08642 1.54965 1 4.39875 -51.7779 120.245
66 5.28642 1.54965 1 4.23072 -61.5073 -150.666
67 5.48642 1.54965 1 4.06558 -46.0473 -136.521
68 5.68642 1.54965 1 3.90371 -46.7221 -39.5434
69 5.88642 1.54965 1 3.74552 -42.7793 57.6337
70 6.08642 1.54965 1 3.5915 -47.0646 110.878
71 6.28642 1.54965 1 3.44222 -45.5242 163.218
72 6.48642 1.54965 1 3.29831 -43.2359 -126.044
73 4.88642 1.74965 1 4.63304 -45.1539 -36.7957
74 5.08642 1.74965 1 4.46486 -46.5212 102.699
75 5.28642 1.74965 1 4.29941 -48.1736 -149.026
76 5.48642 1.74965 1 4.13702 -48.1225 28.5938
77 5.68642 1.74965 1 3.97805 -51.9945 85.2262
78 5.88642 1.74965 1 3.82294 -52.037 -140.239
79 6.08642 1.74965 1 3.67217 -51.6894 -153.835
80 6.28642 1.74965 1 3.5263 -39.3642 -66.9726
81 6.48642 1.74965 1 3.38597 -45.5237 23.8937
