#Rx
# X(m), Y(m), Z(m), Distance(m), Power (dBm) Phase (deg)
1 2.05257 4.1024 1 10.645 -53.322 155.109
2 2.25257 4.1024 1 10.4613 -60.3281 -79.0861
3 2.45257 4.1024 1 10.2782 -68.7947 130.203
4 2.65257 4.1024 1 10.0958 -60.5071 -76.9844
5 2.85257 4.1024 1 9.91404 -56.3864 31.0178
6 3.05257 4.1024 1 9.73299 -58.3118 -167.574
7 3.25257 4.1024 1 9.5527 -55.5337 45.2599
8 3.45257 4.1024 1 9.37321 -53.4266 -156.355
9 3.65257 4.1024 1 9.19456 -56.6014 23.3598
10 3.85257 4.1024 1 9.01681 -57.5869 -136.105
11 2.05257 4.3024 1 10.5759 -56.6973 -20.665
12 2.25257 4.3024 1 10.391 -56.2009 157.586
13 2.45257 4.3024 1 10.2067 -62.0856 -36.9985
14 2.65257 4.3024 1 10.0229 -65.0097 -151.425
15 2.85257 4.3024 1 9.83981 -63.4686 -104.25
16 3.05257 4.3024 1 9.65738 -60.7722 28.7942
17 3.25257 4.3024 1 9.47564 -62.7622 -139.553
18 3.45257 4.3024 1 9.29466 -58.7384 40.8039
19 3.65257 4.3024 1 9.11448 -61.0189 -170.957
20 3.85257 4.3024 1 8.93514 -64.9247 45.8575
21 2.05257 4.5024 1 10.5102 -62.0397 -150.323
22 2.25257 4.5024 1 10.3241 -61.8942 67.6678
23 2.45257 4.5024 1 10.1385 -56.6612 -165.355
24 2.65257 4.5024 1 9.95353 -58.5206 -21.5189
25 2.85257 4.5024 1 9.76912 -72.8879 176.726
26 3.05257 4.5024 1 9.58533 -58.375 -2.93587
27 3.25257 4.5024 1 9.40221 -59.2634 122.357
28 3.45257 4.5024 1 9.21979 -62.1886 -87.1369
29 3.65257 4.5024 1 9.03811 -60.8298 85.7615
30 3.85257 4.5024 1 8.85722 -60.0616 -137.55
31 2.05257 4.7024 1 10.4479 -54.1001 27.1706
32 2.25257 4.7024 1 10.2606 -56.3799 -132.775
33 2.45257 4.7024 1 10.0739 -57.3616 65.1727
34 2.65257 4.7024 1 9.88769 -55.2759 -166.967
35 2.85257 4.7024 1 9.70203 -57.9181 -2.9046
36 3.05257 4.7024 1 9.51695 -57.2146 -167.15
37 3.25257 4.7024 1 9.33248 -54.6137 -16.7
38 3.45257 4.7024 1 9.14867 -60.7725 140.74
39 3.65257 4.7024 1 8.96555 -59.1146 -30.5652
40 3.85257 4.7024 1 8.78317 -53.9944 100.534
41 2.05257 4.9024 1 10.389 -62.2717 -126.134
42 2.25257 4.9024 1 10.2007 -57.3138 26.0122
43 2.45257 4.9024 1 10.0129 -55.9051 -153.588
44 2.65257 4.9024 1 9.82548 -56.0722 25.3692
45 2.85257 4.9024 1 9.63862 -53.0641 -129.637
46 3.05257 4.9024 1 9.4523 -54.0427 33.0482
47 3.25257 4.9024 1 9.26655 -55.2942 -159.008
48 3.45257 4.9024 1 9.08141 -57.3428 -0.169126
49 3.65257 4.9024 1 8.8969 -55.4823 161.973
50 3.85257 4.9024 1 8.71308 -64.0118 -40.5909
51 2.05257 5.1024 1 10.3337 -51.5098 19.9221
52 2.25257 5.1024 1 10.1444 -53.6929 -167.358
53 2.45257 5.1024 1 9.95545 -53.6766 24.5918
54 2.65257 5.1024 1 9.76698 -54.0896 -167.923
55 2.85257 5.1024 1 9.57898 -55.3401 35.7463
56 3.05257 5.1024 1 9.39147 -56.384 -158.257
57 3.25257 5.1024 1 9.20449 -57.9251 7.74969
58 3.45257 5.1024 1 9.01807 -52.7885 -128.109
59 3.65257 5.1024 1 8.83225 -53.9065 38.0515
60 3.85257 5.1024 1 8.64705 -53.7756 -147.701
61 2.05257 5.3024 1 10.282 -52.0193 173.67
62 2.25257 5.3024 1 10.0917 -51.5496 -0.233781
63 2.45257 5.3024 1 9.90175 -53.4535 178.189
64 2.65257 5.3024 1 9.71224 -53.8475 19.5276
65 2.85257 5.3024 1 9.52316 -56.5643 -177.309
66 3.05257 5.3024 1 9.33453 -57.6999 9.4662
67 3.25257 5.3024 1 9.14639 -53.0016 -132.776
68 3.45257 5.3024 1 8.95876 -49.8708 32.8553
69 3.65257 5.3024 1 8.77168 -51.9205 -170.365
70 3.85257 5.3024 1 8.58518 -53.315 -10.5279
71 2.05257 5.5024 1 10.2339 -51.0078 -43.9573
72 2.25257 5.5024 1 10.0427 -52.0466 150.149
73 2.45257 5.5024 1 9.85182 -55.2029 -22.6547
74 2.65257 5.5024 1 9.66133 -58.2063 -170.538
75 2.85257 5.5024 1 9.47123 -53.1112 13.344
76 3.05257 5.5024 1 9.28155 -51.7739 -174.171
77 3.25257 5.5024 1 9.09231 -50.6244 8.44726
78 3.45257 5.5024 1 8.90354 -49.7505 170.704
79 3.65257 5.5024 1 8.71527 -55.1596 -11.1431
80 3.85257 5.5024 1 8.52754 -54.9532 -154.772
81 2.05257 5.7024 1 10.1895 -53.7823 88.8593
82 2.25257 5.7024 1 9.99746 -54.9006 -72.7171
83 2.45257 5.7024 1 9.80572 -58.1016 134.833
84 2.65257 5.7024 1 9.61431 -51.8744 -8.96997
85 2.85257 5.7024 1 9.42327 -49.3901 158.723
86 3.05257 5.7024 1 9.2326 -50.8217 -32.1029
87 3.25257 5.7024 1 9.04234 -51.7502 151.332
88 3.45257 5.7024 1 8.8525 -53.4575 -16.9066
89 3.65257 5.7024 1 8.66312 -50.7539 -175.776
90 3.85257 5.7024 1 8.47424 -48.7658 -5.47992
91 2.05257 5.9024 1 10.1489 -52.3974 126.467
92 2.25257 5.9024 1 9.95604 -59.0212 -81.3475
93 2.45257 5.9024 1 9.76349 -61.4389 -7.71517
94 2.65257 5.9024 1 9.57124 -49.8736 98.1778
95 2.85257 5.9024 1 9.37932 -49.2803 -92.6063
96 3.05257 5.9024 1 9.18774 -52.0927 97.3473
97 3.25257 5.9024 1 8.99653 -51.257 -44.1261
98 3.45257 5.9024 1 8.80571 -49.6728 141.055
99 3.65257 5.9024 1 8.6153 -48.6191 -42.3547
100 3.85257 5.9024 1 8.42534 -51.3327 121.241
101 2.05257 6.1024 1 10.1121 -48.6806 179.692
102 2.25257 6.1024 1 9.9185 -50.9485 0.190331
103 2.45257 6.1024 1 9.7252 -53.5053 -158.925
104 2.65257 6.1024 1 9.53218 -52.1259 55.5095
105 2.85257 6.1024 1 9.33945 -49.1713 -109.316
106 3.05257 6.1024 1 9.14704 -55.5142 125.954
107 3.25257 6.1024 1 8.95496 -57.5792 52.8644
108 3.45257 6.1024 1 8.76323 -47.9357 -117.189
109 3.65257 6.1024 1 8.57188 -49.3579 69.0117
110 3.85257 6.1024 1 8.38094 -51.1586 -80.4941
111 2.05257 6.3024 1 10.0791 -51.8755 -62.3296
112 2.25257 6.3024 1 9.88485 -53.4841 149.541
113 2.45257 6.3024 1 9.69088 -50.664 8.60928
114 2.65257 6.3024 1 9.49717 -48.4719 -162.364
115 2.85257 6.3024 1 9.30371 -51.7253 6.49616
116 3.05257 6.3024 1 9.11054 -51.8652 -179.677
117 3.25257 6.3024 1 8.91768 -52.0963 52.6762
118 3.45257 6.3024 1 8.72513 -48.4155 -132.591
119 3.65257 6.3024 1 8.53293 -50.6249 45.7004
120 3.85257 6.3024 1 8.34109 -52.6973 -117.435
121 2.05257 6.5024 1 10.0499 -56.915 39.0484
122 2.25257 6.5024 1 9.85515 -56.513 -84.4758
123 2.45257 6.5024 1 9.66059 -51.6705 105.091
124 2.65257 6.5024 1 9.46625 -51.0436 -80.202
125 2.85257 6.5024 1 9.27215 -53.7311 119.392
126 3.05257 6.5024 1 9.07831 -52.4673 -20.8852
127 3.25257 6.5024 1 8.88474 -48.5368 167.712
128 3.45257 6.5024 1 8.69147 -49.2389 -21.9955
129 3.65257 6.5024 1 8.4985 -50.8316 -161.571
130 3.85257 6.5024 1 8.30587 -48.8264 32.0983
131 2.05257 6.7024 1 10.0247 -51.8496 114.215
132 2.25257 6.7024 1 9.82943 -49.6075 -34.8839
133 2.45257 6.7024 1 9.63435 -48.147 157.995
134 2.65257 6.7024 1 9.43947 -49.8585 -13.7104
135 2.85257 6.7024 1 9.24481 -51.5611 -159.614
136 3.05257 6.7024 1 9.05038 -49.5483 42.1842
137 3.25257 6.7024 1 8.85621 -47.6967 -134.546
138 3.45257 6.7024 1 8.66229 -49.4255 48.4133
139 3.65257 6.7024 1 8.46866 -49.4565 -96.05
140 3.85257 6.7024 1 8.27534 -48.0842 90.9734
141 2.05257 6.9024 1 10.0034 -49.9381 -164.364
142 2.25257 6.9024 1 9.80772 -48.7644 22.3364
143 2.45257 6.9024 1 9.6122 -49.4796 -154.31
144 2.65257 6.9024 1 9.41686 -54.663 54.9105
145 2.85257 6.9024 1 9.22173 -51.7206 -66.8116
146 3.05257 6.9024 1 9.0268 -48.7517 126.348
147 3.25257 6.9024 1 8.83211 -48.6191 -43.7309
148 3.45257 6.9024 1 8.63765 -49.346 148.411
149 3.65257 6.9024 1 8.44346 -49.8111 -13.3878
150 3.85257 6.9024 1 8.24954 -51.6882 169.551
151 2.05257 7.1024 1 9.9861 -51.1314 -110.445
152 2.25257 7.1024 1 9.79005 -49.7773 77.7776
153 2.45257 7.1024 1 9.59417 -53.1487 -102.31
154 2.65257 7.1024 1 9.39846 -53.804 143.292
155 2.85257 7.1024 1 9.20293 -49.4663 -15.9243
156 3.05257 7.1024 1 9.0076 -49.4202 162.581
157 3.25257 7.1024 1 8.81248 -50.9281 7.89334
158 3.45257 7.1024 1 8.61758 -52.1724 -149.518
159 3.65257 7.1024 1 8.42293 -52.9832 50.6123
160 3.85257 7.1024 1 8.22853 -53.4523 -89.5614
161 2.05257 7.3024 1 9.97276 -52.0162 179.721
162 2.25257 7.3024 1 9.77644 -53.171 36.3203
163 2.45257 7.3024 1 9.58028 -52.8142 -141.614
164 2.65257 7.3024 1 9.38428 -55.6713 104.549
165 2.85257 7.3024 1 9.18845 -49.1422 23.6312
166 3.05257 7.3024 1 8.99281 -52.4526 -146.176
167 3.25257 7.3024 1 8.79736 -53.527 74.9732
168 3.45257 7.3024 1 8.60212 -52.3257 -98.4995
169 3.65257 7.3024 1 8.40711 -56.3364 119.5
170 3.85257 7.3024 1 8.21233 -51.5807 -38.9194
171 2.05257 7.5024 1 9.96341 -52.8115 83.6707
172 2.25257 7.5024 1 9.76691 -57.4688 -90.7594
173 2.45257 7.5024 1 9.57055 -55.3589 158.832
174 2.65257 7.5024 1 9.37435 -52.2701 -36.0244
175 2.85257 7.5024 1 9.17831 -60.0454 168.684
176 3.05257 7.5024 1 8.98244 -54.3891 43.9806
177 3.25257 7.5024 1 8.78677 -52.3069 -136.209
178 3.45257 7.5024 1 8.59129 -54.5268 78.3149
179 3.65257 7.5024 1 8.39602 -50.4288 -90.5261
180 3.85257 7.5024 1 8.20098 -55.4567 84.2868
181 2.05257 7.7024 1 9.95808 -53.8328 97.1899
182 2.25257 7.7024 1 9.76147 -58.3098 -87.0435
183 2.45257 7.7024 1 9.565 -56.2127 151.316
184 2.65257 7.7024 1 9.36868 -55.0812 -52.1168
185 2.85257 7.7024 1 9.17252 -67.4807 79.62
186 3.05257 7.7024 1 8.97653 -59.5723 82.6503
187 3.25257 7.7024 1 8.78072 -57.4165 -109.497
188 3.45257 7.7024 1 8.5851 -55.8612 119.791
189 3.65257 7.7024 1 8.38969 -51.7765 -66.1733
190 3.85257 7.7024 1 8.1945 -54.5165 110.996
