#Rx
# X(m), Y(m), Z(m), Distance(m), Power (dBm) Phase (deg)
1 9.42507 3.65205 1 0 -59.5566 63.6882
2 9.62507 3.6517 1 0.2 -58.0683 -39.0558
3 9.82507 3.65136 1 0.4 -62.5547 -132.119
4 10.0251 3.65102 1 0.6 -61.2465 92.5036
5 10.2251 3.65067 1 0.8 -57.1152 -82.093
6 10.4251 3.65033 1 1 -59.664 36.2877
7 10.6251 3.64998 1 1.2 -59.7161 157.439
8 10.8251 3.64964 1 1.4 -58.5971 -133.823
9 11.0251 3.6493 1 1.6 -60.3403 -45.8588
10 11.2251 3.64895 1 1.8 -58.8955 30.9169
11 11.4251 3.64861 1 2 -69.2921 69.663
12 11.6251 3.64826 1 2.2 -64.3992 -7.32734
13 9.42472 3.45205 1 4.40907 -58.733 -142.345
14 9.62472 3.4517 1 4.60907 -56.2524 104.373
15 9.82472 3.45136 1 4.80907 -55.3103 -15.7881
16 10.0247 3.45102 1 5.00907 -53.065 168.314
17 10.2247 3.45067 1 5.20907 -56.1054 -9.6046
18 10.4247 3.45033 1 5.40907 -54.8879 136.127
19 10.6247 3.44998 1 5.60907 -54.8394 -67.893
20 10.8247 3.44964 1 5.80907 -80.5569 59.6325
21 11.0247 3.4493 1 6.00907 -56.0443 -25.0445
22 11.2247 3.44895 1 6.20907 -57.8336 73.7586
23 11.4247 3.44861 1 6.40907 -56.1495 96.0811
24 11.6247 3.44826 1 6.60907 -67.298 -140.847
25 9.42438 3.25205 1 8.81814 -56.2305 6.95355
26 9.62438 3.2517 1 9.01814 -52.5611 -89.2456
27 9.82438 3.25136 1 9.21814 -53.1033 106.895
28 10.0244 3.25102 1 9.41814 -52.5271 -60.9369
29 10.2244 3.25067 1 9.61814 -54.7478 101.436
30 10.4244 3.25033 1 9.81814 -54.5346 -142.045
31 10.6244 3.24998 1 10.0181 -54.8427 -33.8487
32 10.8244 3.24964 1 10.2181 -57.4155 54.0309
33 11.0244 3.2493 1 10.4181 -60.4641 123.816
34 11.2244 3.24895 1 10.6181 -66.5648 91.3682
35 11.4244 3.24861 1 10.8181 -65.7566 50.8291
36 11.6244 3.24826 1 11.0181 -62.1698 23.0169
37 9.42404 3.05205 1 13.2272 -58.5922 138.592
38 9.62404 3.05171 1 13.4272 -54.7303 12.9407
39 9.82404 3.05136 1 13.6272 -52.9945 -141.924
40 10.024 3.05102 1 13.8272 -52.3199 47.0116
41 10.224 3.05067 1 14.0272 -55.9996 -176.098
42 10.424 3.05033 1 14.2272 -55.7656 -52.4154
43 10.624 3.04998 1 14.4272 -56.5179 60.614
44 10.824 3.04964 1 14.6272 -63.2569 79.1381
45 9.42369 2.85205 1 16.0414 -58.8178 -137.855
46 9.62369 2.85171 1 16.2414 -56.5588 83.6476
47 9.82369 2.85136 1 16.4414 -53.9188 -70.093
48 10.0237 2.85102 1 16.6414 -51.5881 94.4859
49 10.2237 2.85067 1 16.8414 -51.6546 -106.623
50 10.4237 2.85033 1 17.0414 -53.8893 11.0694
51 10.6237 2.84999 1 17.2414 -57.7381 121.782
52 10.8237 2.84964 1 17.4414 -58.0026 90.9637
53 9.42335 2.65205 1 18.8556 -64.473 -4.19766
54 9.62335 2.65171 1 19.0556 -53.9705 -170.244
55 9.82335 2.65136 1 19.2556 -52.5241 18.0095
56 10.0233 2.65102 1 19.4556 -51.001 -158.106
57 10.2233 2.65067 1 19.6556 -55.4699 -4.24622
58 10.4233 2.65033 1 19.8556 -57.139 52.3782
59 10.6233 2.64999 1 20.0556 -52.4007 105.104
60 10.8233 2.64964 1 20.2556 -53.615 174.609
61 9.423 2.45205 1 21.6699 -57.962 -22.8458
62 9.623 2.45171 1 21.8699 -59.1724 -131.175
63 9.823 2.45136 1 22.0699 -60.5023 92.6043
64 10.023 2.45102 1 22.2699 -56.7968 -119.984
65 10.223 2.45067 1 22.4699 -57.5936 -27.3863
66 10.423 2.45033 1 22.6699 -54.8697 62.2525
67 10.623 2.44999 1 22.8699 -51.0285 129.596
68 10.823 2.44964 1 23.0699 -53.3094 -179.81
69 9.42266 2.25205 1 24.4841 -52.764 81.1243
70 9.62266 2.25171 1 24.6841 -50.6622 -77.8629
71 9.82266 2.25136 1 24.8841 -53.3932 108.92
72 10.0227 2.25102 1 25.0841 -51.2653 -94.5189
73 10.2227 2.25067 1 25.2841 -53.9452 20.3364
74 10.4227 2.25033 1 25.4841 -50.9397 79.8946
75 10.6227 2.24999 1 25.6841 -57.8057 146.001
76 10.8227 2.24964 1 25.8841 -48.5547 148.904
77 9.42232 2.05205 1 27.2983 -60.9069 152.802
78 9.62232 2.05171 1 27.4983 -54.6044 6.13969
79 9.82232 2.05136 1 27.6983 -51.2748 167.42
80 10.0223 2.05102 1 27.8983 -52.4925 -48.2779
81 10.2223 2.05067 1 28.0983 -57.4441 -0.134897
82 10.4223 2.05033 1 28.2983 -52.2419 43.9658
83 10.6223 2.04999 1 28.4983 -48.5253 118.32
84 10.8223 2.04964 1 28.6983 -57.0366 158.715
85 9.42197 1.85205 1 30.1125 -55.2479 39.9695
86 9.62197 1.85171 1 30.3125 -64.042 -66.7262
87 9.82197 1.85136 1 30.5125 -63.1768 77.476
88 10.022 1.85102 1 30.7125 -53.2189 -127.142
89 10.222 1.85067 1 30.9125 -54.3649 -33.2629
90 10.422 1.85033 1 31.1125 -50.6384 19.5149
91 10.622 1.84999 1 31.3125 -47.769 47.9552
92 10.822 1.84964 1 31.5125 -47.1275 56.1509
93 9.42163 1.65205 1 32.9267 -57.0407 -159.502
94 9.62163 1.65171 1 33.1267 -76.1422 -64.8841
95 9.82163 1.65136 1 33.3267 -64.6669 139.802
96 10.0216 1.65102 1 33.5267 -55.7429 149.298
97 10.2216 1.65067 1 33.7267 -47.6883 -107.72
98 10.4216 1.65033 1 33.9267 -46.9275 -38.7732
99 10.6216 1.64999 1 34.1267 -47.2087 -10.5961
100 10.8216 1.64964 1 34.3267 -45.5366 -11.7883
101 11.0216 1.6493 1 34.5267 -45.4691 -16.9248
102 11.2216 1.64895 1 34.7267 -43.4749 -45.4923
103 11.4216 1.64861 1 34.9267 -49.1674 -88.721
104 11.6216 1.64827 1 35.1267 -47.4065 161.1
105 9.42128 1.45205 1 37.3358 -59.5478 15.0972
106 9.62128 1.45171 1 37.5358 -66.7358 167.457
107 9.82128 1.45136 1 37.7358 -55.3976 -17.5302
108 10.0213 1.45102 1 37.9358 -50.0736 87.0377
109 10.2213 1.45068 1 38.1358 -46.0595 177.896
110 10.4213 1.45033 1 38.3358 -44.888 -121.641
111 10.6213 1.44999 1 38.5358 -42.4696 -107.166
112 10.8213 1.44964 1 38.7358 -41.6649 -90.0955
113 11.0213 1.4493 1 38.9358 -43.5387 -133.05
114 11.2213 1.44895 1 39.1358 -45.8358 -157.983
115 11.4213 1.44861 1 39.3358 -48.1242 126.701
116 11.6213 1.44827 1 39.5358 -45.525 57.9363
117 9.42094 1.25205 1 41.7449 -56.6321 108.673
118 9.62094 1.25171 1 41.9449 -53.4111 -127.798
119 9.82094 1.25136 1 42.1449 -59.7952 20.1946
120 10.0209 1.25102 1 42.3449 -53.0747 -27.9248
121 10.2209 1.25068 1 42.5449 -43.8904 76.1108
122 10.4209 1.25033 1 42.7449 -42.457 150.08
123 10.6209 1.24999 1 42.9449 -48.4118 137.904
124 10.8209 1.24964 1 43.1449 -41.8604 139.969
125 11.0209 1.2493 1 43.3449 -55.9971 44.9817
126 11.2209 1.24896 1 43.5449 -45.2133 41.5621
127 11.4209 1.24861 1 43.7449 -51.3329 -40.2053
128 11.6209 1.24827 1 43.9449 -55.976 -99.7595
129 9.4206 1.05205 1 46.1539 -60.978 -136.366
130 9.6206 1.05171 1 46.3539 -51.9339 23.5722
131 9.82059 1.05136 1 46.5539 -47.8481 161.21
132 10.0206 1.05102 1 46.7539 -47.3635 -73.2067
133 10.2206 1.05068 1 46.9539 -53.8264 -34.1552
134 10.4206 1.05033 1 47.1539 -45.2795 8.60143
135 10.6206 1.04999 1 47.3539 -55.8046 25.4214
136 10.8206 1.04964 1 47.5539 -52.9574 -33.1078
137 11.0206 1.0493 1 47.7539 -58.5004 -69.6779
138 11.2206 1.04896 1 47.9539 -54.9781 -171.772
139 11.4206 1.04861 1 48.1539 -65.6749 7.12795
140 11.6206 1.04827 1 48.3539 -51.7487 -72.6926
141 9.42025 0.852052 1 50.563 -59.2689 -47.3147
142 9.62025 0.851708 1 50.763 -59.7131 153.646
143 9.82025 0.851364 1 50.963 -54.14 -49.4751
144 10.0203 0.85102 1 51.163 -50.1853 61.1742
145 10.2203 0.850676 1 51.363 -51.514 -164.66
146 10.4202 0.850332 1 51.563 -47.9865 78.7819
147 10.6202 0.849988 1 51.763 -48.6476 164.032
148 10.8202 0.849644 1 51.963 -51.779 2.29716
149 11.0202 0.8493 1 52.163 -55.3799 -122.902
150 11.2202 0.848956 1 52.363 -45.7831 -83.9573
151 11.4202 0.848612 1 52.563 -45.5298 158.768
152 11.6202 0.848268 1 52.763 -48.2702 55.89
153 9.41991 0.652053 1 54.9721 -62.3032 -134.824
154 9.61991 0.651709 1 55.1721 -58.7013 -13.7647
155 9.81991 0.651365 1 55.3721 -68.2011 20.0516
156 10.0199 0.65102 1 55.5721 -55.9215 148.632
157 10.2199 0.650676 1 55.7721 -57.8271 155.621
158 10.4199 0.650332 1 55.9721 -45.4463 -164.627
159 10.6199 0.649988 1 56.1721 -45.2781 -148.778
160 10.8199 0.649644 1 56.3721 -42.8962 157.508
161 11.0199 0.6493 1 56.5721 -49.1848 114.397
162 11.2199 0.648956 1 56.7721 -42.7162 47.3219
163 11.4199 0.648612 1 56.9721 -43.0885 -59.4308
164 11.6199 0.648268 1 57.1721 -44.4588 -172.456
165 9.41956 0.452053 1 59.3811 -57.1786 77.285
166 9.61956 0.451709 1 59.5811 -61.8209 -169.583
167 9.81956 0.451365 1 59.7811 -56.4873 -87.0307
168 10.0196 0.451021 1 59.9811 -52.9582 -104.726
169 10.2196 0.450677 1 60.1811 -43.293 -28.2864
170 10.4196 0.450333 1 60.3811 -53.1214 -36.4279
171 10.6196 0.449988 1 60.5811 -40.2636 -44.5159
172 10.8196 0.449644 1 60.7811 -44.9472 -98.905
173 11.0196 0.4493 1 60.9811 -42.9535 -124.913
174 11.2196 0.448956 1 61.1811 -40.3227 131.185
175 11.4196 0.448612 1 61.3811 -46.7702 17.8372
176 11.6196 0.448268 1 61.5811 -46.234 -44.6693
177 9.41922 0.252053 1 63.7902 -59.165 -6.70475
178 9.61922 0.251709 1 63.9902 -49.4721 -138.252
179 9.81922 0.251365 1 64.1902 -51.6133 -24.611
180 10.0192 0.251021 1 64.3902 -51.6757 -29.8111
181 10.2192 0.250677 1 64.5902 -43.4739 48.7123
182 10.4192 0.250333 1 64.7902 -48.9675 39.7438
183 10.6192 0.249989 1 64.9902 -43.1716 27.2481
184 10.8192 0.249645 1 65.1902 -44.7407 -12.3089
185 11.0192 0.249301 1 65.3902 -43.2538 -63.5378
186 11.2192 0.248957 1 65.5902 -42.8371 -166.151
187 11.4192 0.248613 1 65.7902 -46.1078 98.2681
188 11.6192 0.248269 1 65.9902 -47.1538 -31.4415
