#Rx
# X(m), Y(m), Z(m), Distance(m), Power (dBm) Phase (deg)
1 0.110705 4.12118 1 12.5028 -73.6388 137.561
2 0.310705 4.12118 1 12.3155 -72.5289 -73.7813
3 0.510705 4.12118 1 12.1285 -87.0853 70.7653
4 0.710705 4.12118 1 11.942 -95.459 127.816
5 0.910705 4.12118 1 11.7559 -69.6929 -139.522
6 1.1107 4.12118 1 11.5703 -69.5623 -33.8099
7 1.3107 4.12118 1 11.3851 -70.3255 83.3561
8 1.5107 4.12118 1 11.2005 -65.2136 141.903
9 1.7107 4.12118 1 11.0164 -68.5711 -67.6618
10 1.9107 4.12118 1 10.8329 -71.8537 60.9695
11 0.110705 4.32118 1 12.5675 -74.8563 -95.8928
12 0.310705 4.32118 1 12.3811 -77.8953 -128.949
13 0.510705 4.32118 1 12.1951 -78.118 51.66
14 0.710705 4.32118 1 12.0096 -74.9347 157.381
15 0.910705 4.32118 1 11.8246 -72.7723 154.552
16 1.1107 4.32118 1 11.6401 -66.3282 -36.4756
17 1.3107 4.32118 1 11.4561 -66.4934 112.029
18 1.5107 4.32118 1 11.2726 -71.5129 -156.217
19 1.7107 4.32118 1 11.0897 -78.5059 -26.3618
20 1.9107 4.32118 1 10.9074 -69.4297 20.9786
21 0.110705 4.52118 1 12.6349 -82.3837 11.3967
22 0.310705 4.52118 1 12.4495 -73.664 -69.3033
23 0.510705 4.52118 1 12.2646 -76.2855 -21.7061
24 0.710705 4.52118 1 12.0802 -67.7556 138.664
25 0.910705 4.52118 1 11.8963 -68.2484 -76.0112
26 1.1107 4.52118 1 11.7129 -67.468 3.62751
27 1.3107 4.52118 1 11.53 -68.3855 145.716
28 1.5107 4.52118 1 11.3477 -68.8584 -176.774
29 1.7107 4.52118 1 11.1661 -74.3524 4.89399
30 1.9107 4.52118 1 10.9851 -70.5106 -143.207
31 0.110705 4.72118 1 12.7052 -73.7057 115.471
32 0.310705 4.72118 1 12.5208 -73.4785 -41.0013
33 0.510705 4.72118 1 12.337 -70.3944 104.925
34 0.710705 4.72118 1 12.1537 -70.3963 173.186
35 0.910705 4.72118 1 11.9709 -68.1009 -47.4745
36 1.1107 4.72118 1 11.7886 -68.5095 13.8475
37 1.3107 4.72118 1 11.607 -70.6113 169.317
38 1.5107 4.72118 1 11.4259 -69.9122 -2.64093
39 1.7107 4.72118 1 11.2455 -67.3803 -169.508
40 1.9107 4.72118 1 11.0658 -67.8715 -46.3144
41 0.110705 4.92118 1 12.7782 -65.1488 -103.702
42 0.310705 4.92118 1 12.5949 -70.1144 2.1482
43 0.510705 4.92118 1 12.4122 -74.4657 15.0489
44 0.710705 4.92118 1 12.2299 -66.9996 172.537
45 0.910705 4.92118 1 12.0483 -67.0659 -9.22898
46 1.1107 4.92118 1 11.8673 -68.87 -148.241
47 1.3107 4.92118 1 11.6868 -70.1629 17.5446
48 1.5107 4.92118 1 11.507 -69.3393 135.953
49 1.7107 4.92118 1 11.3279 -66.0879 -108.054
50 1.9107 4.92118 1 11.1495 -70.5055 -135.522
51 0.110705 5.12118 1 12.8539 -69.3354 170.867
52 0.310705 5.12118 1 12.6717 -65.3416 18.7803
53 0.510705 5.12118 1 12.4901 -70.1443 173.391
54 0.710705 5.12118 1 12.309 -75.6862 -10.7834
55 0.910705 5.12118 1 12.1286 -71.2995 109.261
56 1.1107 5.12118 1 11.9487 -66.5322 -75.9175
57 1.3107 5.12118 1 11.7695 -67.1559 81.1516
58 1.5107 5.12118 1 11.591 -71.1181 30.6933
59 1.7107 5.12118 1 11.4132 -75.1922 161.096
60 1.9107 5.12118 1 11.2362 -65.9846 -124.811
61 0.110705 5.32118 1 12.9322 -79.1506 10.0755
62 0.310705 5.32118 1 12.7512 -71.8626 -137.212
63 0.510705 5.32118 1 12.5707 -75.9379 -117.15
64 0.710705 5.32118 1 12.3908 -64.8298 91.5862
65 0.910705 5.32118 1 12.2116 -64.5782 -115.443
66 1.1107 5.32118 1 12.033 -90.822 -55.4041
67 1.3107 5.32118 1 11.855 -73.2135 -46.2405
68 1.5107 5.32118 1 11.6778 -64.7066 54.9675
69 1.7107 5.32118 1 11.5014 -69.7694 179.366
70 1.9107 5.32118 1 11.3257 -68.1346 -75.4759
71 0.110705 5.52118 1 13.0132 -69.4028 145.458
72 0.310705 5.52118 1 12.8332 -63.9092 -92.2337
73 0.510705 5.52118 1 12.6539 -64.2998 30.9896
74 0.710705 5.52118 1 12.4753 -74.4276 139.215
75 0.910705 5.52118 1 12.2972 -77.695 122.334
76 1.1107 5.52118 1 12.1199 -66.4447 -145.261
77 1.3107 5.52118 1 11.9433 -65.4451 -31.6052
78 1.5107 5.52118 1 11.7674 -66.1061 103.211
79 1.7107 5.52118 1 11.5923 -70.9397 -114.538
80 1.9107 5.52118 1 11.4181 -64.5285 120.567
81 0.110705 5.72118 1 13.0967 -62.9201 -132.369
82 0.310705 5.72118 1 12.9179 -72.694 -84.0652
83 0.510705 5.72118 1 12.7398 -69.1345 -12.0154
84 0.710705 5.72118 1 12.5623 -66.3671 34.2749
85 0.910705 5.72118 1 12.3856 -64.1228 133.593
86 1.1107 5.72118 1 12.2095 -64.8742 -80.8871
87 1.3107 5.72118 1 12.0342 -68.4576 60.0952
88 1.5107 5.72118 1 11.8597 -65.54 -71.504
89 1.7107 5.72118 1 11.686 -69.3766 79.0929
90 1.9107 5.72118 1 11.5132 -72.8043 -174.121
91 0.110705 5.92118 1 13.1827 -71.497 -176.534
92 0.310705 5.92118 1 13.0051 -71.3969 -115.435
93 0.510705 5.92118 1 12.8282 -66.524 -21.0358
94 0.710705 5.92118 1 12.652 -63.6908 93.6021
95 0.910705 5.92118 1 12.4765 -64.6786 -156.464
96 1.1107 5.92118 1 12.3017 -67.095 98.2455
97 1.3107 5.92118 1 12.1278 -70.0475 -122.871
98 1.5107 5.92118 1 11.9546 -71.1019 1.9494
99 1.7107 5.92118 1 11.7823 -70.6556 93.5833
100 1.9107 5.92118 1 11.6109 -69.0096 -151.544
101 0.110705 6.12118 1 13.2711 -67.6516 148.213
102 0.310705 6.12118 1 13.0948 -63.9694 -84.8664
103 0.510705 6.12118 1 12.9191 -63.0305 37.9069
104 0.710705 6.12118 1 12.7441 -64.4663 138.812
105 0.910705 6.12118 1 12.5699 -80.6749 85.0879
106 1.1107 6.12118 1 12.3965 -68.0739 -169.816
107 1.3107 6.12118 1 12.2239 -64.9147 -66.0782
108 1.5107 6.12118 1 12.0521 -71.4658 44.4881
109 1.7107 6.12118 1 11.8812 -72.2533 132.681
110 1.9107 6.12118 1 11.7112 -91.7376 68.309
111 0.110705 6.32118 1 13.362 -64.7827 -125.823
112 0.310705 6.32118 1 13.1869 -67.9752 -32.4438
113 0.510705 6.32118 1 13.0124 -84.8232 24.828
114 0.710705 6.32118 1 12.8387 -75.0178 27.5124
115 0.910705 6.32118 1 12.6658 -68.5868 132.278
116 1.1107 6.32118 1 12.4937 -64.8785 -115.686
117 1.3107 6.32118 1 12.3225 -66.9553 -19.7208
118 1.5107 6.32118 1 12.1521 -69.7431 38.2535
119 1.7107 6.32118 1 11.9826 -79.947 99.1186
120 1.9107 6.32118 1 11.8141 -85.3025 -61.4921
121 0.110705 6.52118 1 13.4552 -70.3777 -3.1232
122 0.310705 6.52118 1 13.2813 -68.3736 138.379
123 0.510705 6.52118 1 13.1081 -71.1595 -73.5303
124 0.710705 6.52118 1 12.9357 -66.8498 61.2535
125 0.910705 6.52118 1 12.7641 -65.8156 165.78
126 1.1107 6.52118 1 12.5934 -67.9603 -84.0722
127 1.3107 6.52118 1 12.4235 -72.5499 -12.0369
128 1.5107 6.52118 1 12.2545 -71.0406 50.5297
129 1.7107 6.52118 1 12.0865 -70.6026 140.05
130 1.9107 6.52118 1 11.9195 -80.3266 34.007
131 0.110705 6.72118 1 13.5508 -70.7574 81.3119
132 0.310705 6.72118 1 13.3781 -70.6089 -169.507
133 0.510705 6.72118 1 13.2062 -69.9367 -60.3409
134 0.710705 6.72118 1 13.0351 -69.5723 110.471
135 0.910705 6.72118 1 12.8648 -70.51 174.364
136 1.1107 6.72118 1 12.6954 -70.3027 -106.758
137 1.3107 6.72118 1 12.5269 -70.1104 29.6164
138 1.5107 6.72118 1 12.3594 -75.1786 83.2385
139 1.7107 6.72118 1 12.1928 -71.1232 159.376
140 1.9107 6.72118 1 12.0272 -74.3669 -124.486
141 0.110705 6.92118 1 13.6486 -75.7082 144.14
142 0.310705 6.92118 1 13.4772 -75.3313 -148.455
143 0.510705 6.92118 1 13.3065 -71.9254 -33.7007
144 0.710705 6.92118 1 13.1367 -79.3051 -30.6548
145 0.910705 6.92118 1 12.9678 -75.287 -118.572
146 1.1107 6.92118 1 12.7998 -76.2726 -114.989
147 1.3107 6.92118 1 12.6326 -69.924 -0.0752042
148 1.5107 6.92118 1 12.4665 -73.4582 78.0128
149 1.7107 6.92118 1 12.3014 -72.8553 168.327
150 1.9107 6.92118 1 12.1373 -73.8722 -113.594
151 0.110705 7.12118 1 13.7486 -72.2445 166.718
152 0.310705 7.12118 1 13.5784 -77.1634 -73.3814
153 0.510705 7.12118 1 13.4091 -76.213 -155.43
154 0.710705 7.12118 1 13.2406 -76.4931 -21.5443
155 0.910705 7.12118 1 13.073 -79.0176 63.8054
156 1.1107 7.12118 1 12.9064 -70.5785 -25.7048
157 1.3107 7.12118 1 12.7406 -81.9798 2.89497
158 1.5107 7.12118 1 12.5759 -74.0832 70.5793
159 1.7107 7.12118 1 12.4123 -71.4926 140.579
160 1.9107 7.12118 1 12.2497 -71.056 -104.576
161 0.110705 7.32118 1 13.8508 -81.0452 -25.1922
162 0.310705 7.32118 1 13.6819 -76.7181 166.369
163 0.510705 7.32118 1 13.5138 -89.6889 4.62792
164 0.710705 7.32118 1 13.3467 -77.5057 -83.9465
165 0.910705 7.32118 1 13.1804 -80.9287 17.7322
166 1.1107 7.32118 1 13.0152 -77.8828 96.0617
167 1.3107 7.32118 1 12.8508 -77.0739 9.92879
168 1.5107 7.32118 1 12.6876 -74.9978 72.9144
169 1.7107 7.32118 1 12.5253 -69.7842 174.836
170 1.9107 7.32118 1 12.3642 -71.1775 -100.796
171 0.110705 7.52118 1 13.9551 -87.3404 163.621
172 0.310705 7.52118 1 13.7875 -87.1238 -8.09429
173 0.510705 7.52118 1 13.6207 -81.1945 109.394
174 0.710705 7.52118 1 13.4549 -81.2443 -102.703
175 0.910705 7.52118 1 13.29 -78.2008 14.1771
176 1.1107 7.52118 1 13.1261 -74.6068 139.768
177 1.3107 7.52118 1 12.9632 -82.3474 -53.9515
178 1.5107 7.52118 1 12.8013 -82.193 -139.444
179 1.7107 7.52118 1 12.6406 -78.679 -164.892
180 1.9107 7.52118 1 12.481 -74.3194 -118.839
181 0.110705 7.72118 1 14.0615 -82.4449 153.385
182 0.310705 7.72118 1 13.8951 -81.2365 -15.5235
183 0.510705 7.72118 1 13.7297 -81.0442 155.598
184 0.710705 7.72118 1 13.5652 -79.812 -20.0666
185 0.910705 7.72118 1 13.4017 -86.1494 -178.079
186 1.1107 7.72118 1 13.2391 -88.8882 74.3092
187 1.3107 7.72118 1 13.0776 -73.2534 145.442
188 1.5107 7.72118 1 12.9172 -74.9446 -62.7064
189 1.7107 7.72118 1 12.7579 -79.5661 63.3356
190 1.9107 7.72118 1 12.5998 -67.3196 -71.6165
