#Rx
# X(m), Y(m), Z(m), Distance(m), Power (dBm) Phase (deg)
1 2.05257 4.1024 1 10.6961 -75.9539 79.9856
2 2.25257 4.1024 1 10.5135 -76.1121 -91.4384
3 2.45257 4.1024 1 10.3315 -69.4232 -118.042
4 2.65257 4.1024 1 10.1502 -67.3133 86.5821
5 2.85257 4.1024 1 9.96966 -66.3669 -122.453
6 3.05257 4.1024 1 9.78984 -68.8854 49.8944
7 3.25257 4.1024 1 9.61081 -69.741 -160.087
8 3.45257 4.1024 1 9.43263 -65.7578 -2.36542
9 3.65257 4.1024 1 9.25534 -70.5889 -120.765
10 3.85257 4.1024 1 9.07899 -67.6835 -16.3385
11 2.05257 4.3024 1 10.7712 -73.0001 80.9543
12 2.25257 4.3024 1 10.5899 -67.7618 -79.4378
13 2.45257 4.3024 1 10.4093 -67.4057 64.286
14 2.65257 4.3024 1 10.2294 -68.6019 -141.295
15 2.85257 4.3024 1 10.0502 -70.0415 2.50055
16 3.05257 4.3024 1 9.87186 -65.5433 -178.975
17 3.25257 4.3024 1 9.69435 -73.7787 33.5083
18 3.45257 4.3024 1 9.51773 -65.3211 160.397
19 3.65257 4.3024 1 9.34205 -71.2652 -89.0595
20 3.85257 4.3024 1 9.16737 -73.9236 15.6999
21 2.05257 4.5024 1 10.8495 -68.0449 -118.299
22 2.25257 4.5024 1 10.6695 -63.1217 18.7588
23 2.45257 4.5024 1 10.4903 -69.0022 178.634
24 2.65257 4.5024 1 10.3118 -71.2899 5.21476
25 2.85257 4.5024 1 10.1341 -74.7149 -118.114
26 3.05257 4.5024 1 9.95722 -66.6672 -37.6591
27 3.25257 4.5024 1 9.78126 -80.5266 56.7148
28 3.45257 4.5024 1 9.60624 -74.9088 176.75
29 3.65257 4.5024 1 9.43221 -63.5295 69.8953
30 3.85257 4.5024 1 9.25923 -63.5292 -156.627
31 2.05257 4.7024 1 10.9309 -73.1333 -16.6216
32 2.25257 4.7024 1 10.7523 -68.4802 128.024
33 2.45257 4.7024 1 10.5744 -68.6347 56.1166
34 2.65257 4.7024 1 10.3974 -65.9675 154.869
35 2.85257 4.7024 1 10.2212 -72.5518 -141.417
36 3.05257 4.7024 1 10.0458 -66.7113 32.5047
37 3.25257 4.7024 1 9.87146 -62.7766 -110.148
38 3.45257 4.7024 1 9.69807 -64.0344 26.5178
39 3.65257 4.7024 1 9.52572 -69.7475 152.031
40 3.85257 4.7024 1 9.35447 -71.5722 -104.931
41 2.05257 4.9024 1 11.0153 -69.3131 -117.468
42 2.25257 4.9024 1 10.8381 -66.7294 -42.5018
43 2.45257 4.9024 1 10.6617 -65.6575 48.2457
44 2.65257 4.9024 1 10.4861 -66.2231 -167.801
45 2.85257 4.9024 1 10.3114 -70.3387 -4.91407
46 3.05257 4.9024 1 10.1376 -64.3297 -157.031
47 3.25257 4.9024 1 9.96486 -69.3047 -52.1122
48 3.45257 4.9024 1 9.79312 -68.8066 76.7676
49 3.65257 4.9024 1 9.62247 -84.9793 111.807
50 3.85257 4.9024 1 9.45298 -83.2911 112.442
51 2.05257 5.1024 1 11.1027 -67.421 -129.989
52 2.25257 5.1024 1 10.9269 -68.4179 -0.363523
53 2.45257 5.1024 1 10.7519 -71.8952 145.856
54 2.65257 5.1024 1 10.5778 -65.1169 8.94212
55 2.85257 5.1024 1 10.4047 -67.3765 141.149
56 3.05257 5.1024 1 10.2325 -70.2536 -82.2949
57 3.25257 5.1024 1 10.0614 -72.9779 5.69594
58 3.45257 5.1024 1 9.89131 -86.5149 -26.4452
59 3.65257 5.1024 1 9.72238 -81.6264 112.709
60 3.85257 5.1024 1 9.55466 -84.4751 -34.5364
61 2.05257 5.3024 1 11.193 -68.7236 -64.0972
62 2.25257 5.3024 1 11.0186 -66.0414 -178.037
63 2.45257 5.3024 1 10.8451 -66.9161 -43.3313
64 2.65257 5.3024 1 10.6726 -68.0127 86.8616
65 2.85257 5.3024 1 10.501 -72.4605 -166.116
66 3.05257 5.3024 1 10.3304 -85.0604 -139.706
67 3.25257 5.3024 1 10.1609 -86.8841 29.5664
68 3.45257 5.3024 1 9.99253 -80.2961 -91.6771
69 3.65257 5.3024 1 9.82534 -79.7027 83.2912
70 3.85257 5.3024 1 9.65941 -82.0531 -78.4946
71 2.05257 5.5024 1 11.2861 -68.3255 152.302
72 2.25257 5.5024 1 11.1132 -71.8305 -95.7153
73 2.45257 5.5024 1 10.9412 -71.8567 6.75298
74 2.65257 5.5024 1 10.7702 -71.032 122.094
75 2.85257 5.5024 1 10.6001 -88.0184 -74.0777
76 3.05257 5.5024 1 10.4312 -88.7101 -173.222
77 3.25257 5.5024 1 10.2634 -81.9204 -82.6649
78 3.45257 5.5024 1 10.0967 -82.2728 137.105
79 3.65257 5.5024 1 9.93127 -82.0168 -72.4375
80 3.85257 5.5024 1 9.76713 -76.2824 92.3678
81 2.05257 5.7024 1 11.3819 -72.2947 -178.606
82 2.25257 5.7024 1 11.2105 -72.0656 -93.7053
83 2.45257 5.7024 1 11.04 -83.892 11.0244
84 2.65257 5.7024 1 10.8706 -76.504 -102.105
85 2.85257 5.7024 1 10.7021 -77.7556 145.772
86 3.05257 5.7024 1 10.5348 -79.5218 -56.7224
87 3.25257 5.7024 1 10.3687 -74.6265 122.898
88 3.45257 5.7024 1 10.2037 -81.1947 -74.8841
89 3.65257 5.7024 1 10.0401 -77.3928 159.536
90 3.85257 5.7024 1 9.87773 -80.8339 -14.5616
91 2.05257 5.9024 1 11.4805 -71.2938 -133.902
92 2.25257 5.9024 1 11.3105 -82.4956 -71.9828
93 2.45257 5.9024 1 11.1416 -75.7917 -166.764
94 2.65257 5.9024 1 10.9737 -75.5235 30.8143
95 2.85257 5.9024 1 10.8069 -83.0391 -73.7019
96 3.05257 5.9024 1 10.6412 -77.6723 43.6564
97 3.25257 5.9024 1 10.4767 -77.4709 -102.533
98 3.45257 5.9024 1 10.3135 -77.721 148.687
99 3.65257 5.9024 1 10.1516 -78.2856 -46.0568
100 3.85257 5.9024 1 9.99111 -74.9455 148.29
101 2.05257 6.1024 1 11.5816 -81.7927 118.243
102 2.25257 6.1024 1 11.4132 -83.1725 -122.304
103 2.45257 6.1024 1 11.2458 -85.0061 35.9387
104 2.65257 6.1024 1 11.0795 -94.4872 48.6283
105 2.85257 6.1024 1 10.9143 -77.4154 1.1684
106 3.05257 6.1024 1 10.7502 -88.016 -171.693
107 3.25257 6.1024 1 10.5875 -80.3869 22.4088
108 3.45257 6.1024 1 10.426 -92.8238 -159.031
109 3.65257 6.1024 1 10.2659 -90.7412 67.322
110 3.85257 6.1024 1 10.1072 -74.5887 -20.9638
111 2.05257 6.3024 1 11.6853 -80.5331 4.41057
112 2.25257 6.3024 1 11.5184 -80.8561 -132.512
113 2.45257 6.3024 1 11.3525 -90.5649 -41.4551
114 2.65257 6.3024 1 11.1878 -87.246 -30.9875
115 2.85257 6.3024 1 11.0242 -88.0853 26.0402
116 3.05257 6.3024 1 10.8619 -92.0401 143.221
117 3.25257 6.3024 1 10.7008 -74.1735 116.142
118 3.45257 6.3024 1 10.5411 -88.4817 -48.9146
119 3.65257 6.3024 1 10.3827 -98.5175 -33.0082
120 3.85257 6.3024 1 10.2258 -84.2101 123.73
121 2.05257 6.5024 1 11.7915 -79.9661 77.2424
122 2.25257 6.5024 1 11.6261 -81.1675 -83.5427
123 2.45257 6.5024 1 11.4618 -76.6843 -179.624
124 2.65257 6.5024 1 11.2987 -76.6412 7.6926
125 2.85257 6.5024 1 11.1367 -80.1421 174.338
126 3.05257 6.5024 1 10.976 -75.9921 53.7367
127 3.25257 6.5024 1 10.8167 -74.437 -151.022
128 3.45257 6.5024 1 10.6586 -83.3286 76.2615
129 3.65257 6.5024 1 10.5021 -81.3626 -137.958
130 3.85257 6.5024 1 10.347 -79.7316 159.135
131 2.05257 6.7024 1 11.9001 -72.617 -53.3202
132 2.25257 6.7024 1 11.7362 -84.3261 -145.274
133 2.45257 6.7024 1 11.5735 -86.4653 36.2363
134 2.65257 6.7024 1 11.4119 -89.7297 -111.866
135 2.85257 6.7024 1 11.2516 -95.2749 -146.154
136 3.05257 6.7024 1 11.0926 -90.9798 54.3132
137 3.25257 6.7024 1 10.9349 -72.7277 170.785
138 3.45257 6.7024 1 10.7787 -77.0673 48.6936
139 3.65257 6.7024 1 10.6239 -72.8276 -90.1543
140 3.85257 6.7024 1 10.4706 -60.9634 95.164
141 2.05257 6.9024 1 12.011 -69.4041 144.412
142 2.25257 6.9024 1 11.8487 -69.3118 -0.524643
143 2.45257 6.9024 1 11.6875 -88.1926 59.7046
144 2.65257 6.9024 1 11.5276 -78.2645 -179.155
145 2.85257 6.9024 1 11.3689 -74.604 39.4895
146 3.05257 6.9024 1 11.2115 -77.6497 -141.598
147 3.25257 6.9024 1 11.0556 -81.6015 18.5981
148 3.45257 6.9024 1 10.901 -79.4621 169.73
149 3.65257 6.9024 1 10.748 -58.2181 9.62026
150 3.85257 6.9024 1 10.5965 -60.2271 79.4808
151 2.05257 7.1024 1 12.1242 -70.4675 -176.204
152 2.25257 7.1024 1 11.9635 -75.7239 -132.777
153 2.45257 7.1024 1 11.8039 -72.6282 108.942
154 2.65257 7.1024 1 11.6455 -87.1368 50.3896
155 2.85257 7.1024 1 11.4885 -78.6351 163.157
156 3.05257 7.1024 1 11.3328 -73.2625 -13.3531
157 3.25257 7.1024 1 11.1785 -75.3512 21.1687
158 3.45257 7.1024 1 11.0256 -60.5863 -58.6533
159 3.65257 7.1024 1 10.8744 -58.8625 0.963176
160 3.85257 7.1024 1 10.7247 -58.3604 61.882
161 2.05257 7.3024 1 12.2397 -69.7563 135.913
162 2.25257 7.3024 1 12.0804 -72.4232 -99.7814
163 2.45257 7.3024 1 11.9224 -70.0772 -29.4418
164 2.65257 7.3024 1 11.7656 -66.7126 168.937
165 2.85257 7.3024 1 11.6102 -76.536 -154.17
166 3.05257 7.3024 1 11.4562 -58.7859 139.501
167 3.25257 7.3024 1 11.3036 -60.7085 -156.321
168 3.45257 7.3024 1 11.1525 -61.3325 -78.5207
169 3.65257 7.3024 1 11.0029 -58.6884 -16.6234
170 3.85257 7.3024 1 10.855 -57.022 46.823
171 2.05257 7.5024 1 12.3573 -69.4792 161.865
172 2.25257 7.5024 1 12.1996 -68.5063 -103.432
173 2.45257 7.5024 1 12.0431 -67.4396 -9.08955
174 2.65257 7.5024 1 11.8879 -69.5603 85.6868
175 2.85257 7.5024 1 11.7341 -64.7653 47.3738
176 3.05257 7.5024 1 11.5817 -60.2013 123.862
177 3.25257 7.5024 1 11.4308 -60.0024 -163.145
178 3.45257 7.5024 1 11.2814 -58.9424 -111.268
179 3.65257 7.5024 1 11.1336 -60.0565 -44.0649
180 3.85257 7.5024 1 10.9874 -60.9089 52.1388
181 2.05257 7.7024 1 12.477 -72.8149 -146.279
182 2.25257 7.7024 1 12.3208 -68.3173 -97.558
183 2.45257 7.7024 1 12.1659 -66.0056 -3.70209
184 2.65257 7.7024 1 12.0123 -61.9786 -25.0003
185 2.85257 7.7024 1 11.8601 -60.4005 56.1386
186 3.05257 7.7024 1 11.7094 -59.0598 121.524
187 3.25257 7.7024 1 11.5601 -59.0028 172.87
188 3.45257 7.7024 1 11.4124 -59.5264 -112.391
189 3.65257 7.7024 1 11.2663 -58.4742 -35.916
190 3.85257 7.7024 1 11.1219 -87.5125 -5.34211
