#Rx
# X(m), Y(m), Z(m), Distance(m), Power (dBm) Phase (deg)
1 4.88642 0.149652 1 4.16211 -56.6321 -68.8026
2 5.08642 0.149652 1 4.34329 -49.3727 168.784
3 5.28642 0.149652 1 4.52606 -58.8111 58.2995
4 5.48642 0.149652 1 4.71023 -55.475 70.8907
5 5.68642 0.149652 1 4.89564 -53.3375 -8.97535
6 5.88642 0.149652 1 5.08216 -53.8326 -85.6897
7 6.08642 0.149652 1 5.26967 -52.4975 -173.602
8 6.28642 0.149652 1 5.45806 -56.2833 66.5276
9 6.48642 0.149652 1 5.64725 -73.3528 17.0188
10 4.88642 0.349652 1 4.16847 -46.307 -117.086
11 5.08642 0.349652 1 4.34939 -46.9649 91.644
12 5.28642 0.349652 1 4.53191 -59.1576 -51.0702
13 5.48642 0.349652 1 4.71585 -51.4707 115.307
14 5.68642 0.349652 1 4.90105 -46.9628 -46.2073
15 5.88642 0.349652 1 5.08737 -55.9248 174.007
16 6.08642 0.349652 1 5.2747 -58.5999 -3.14761
17 6.28642 0.349652 1 5.46292 -49.8065 128.422
18 6.48642 0.349652 1 5.65195 -53.309 -35.378
19 4.88642 0.549652 1 4.1844 -45.1429 -163.833
20 5.08642 0.549652 1 4.36466 -45.6971 47.9781
21 5.28642 0.549652 1 4.54657 -48.7895 -147.172
22 5.48642 0.549652 1 4.72994 -47.0285 55.1693
23 5.68642 0.549652 1 4.91461 -48.8374 -74.0578
24 5.88642 0.549652 1 5.10043 -54.7659 109.945
25 6.08642 0.549652 1 5.28729 -55.7784 -117.884
26 6.28642 0.549652 1 5.47508 -51.4841 98.9865
27 6.48642 0.549652 1 5.6637 -54.4708 -84.562
28 4.88642 0.749652 1 4.20977 -48.0494 116.052
29 5.08642 0.749652 1 4.38899 -45.4549 -43.4468
30 5.28642 0.749652 1 4.56993 -45.5026 138.468
31 5.48642 0.749652 1 4.7524 -45.7615 -1.33672
32 5.68642 0.749652 1 4.93623 -45.7853 -157.965
33 5.88642 0.749652 1 5.12127 -50.2065 3.00958
34 6.08642 0.749652 1 5.3074 -49.4049 173.452
35 6.28642 0.749652 1 5.4945 -48.535 0.12
36 6.48642 0.749652 1 5.68248 -48.6031 -177.217
37 4.88642 0.949652 1 4.24443 -45.6546 -26.7826
38 5.08642 0.949652 1 4.42225 -42.5086 -163.465
39 5.28642 0.949652 1 4.60188 -42.3647 63.1068
40 5.48642 0.949652 1 4.78313 -45.3465 -108.339
41 5.68642 0.949652 1 4.96582 -47.731 94.1473
42 5.88642 0.949652 1 5.1498 -46.6807 -95.1002
43 6.08642 0.949652 1 5.33493 -50.4873 83.748
44 6.28642 0.949652 1 5.5211 -49.3831 -65.6653
45 6.48642 0.949652 1 5.7082 -47.8661 97.3492
46 4.88642 1.14965 1 4.28815 -39.4713 -163.62
47 5.08642 1.14965 1 4.46422 -40.8522 82.2944
48 5.28642 1.14965 1 4.64223 -43.9753 -65.5473
49 5.48642 1.14965 1 4.82197 -45.4335 111.306
50 5.68642 1.14965 1 5.00324 -44.5163 -30.0343
51 5.88642 1.14965 1 5.18589 -44.3758 152.683
52 6.08642 1.14965 1 5.36978 -44.9383 -27.8858
53 6.28642 1.14965 1 5.55478 -44.6621 161.442
54 6.48642 1.14965 1 5.74078 -43.7651 -6.08617
55 4.88642 1.34965 1 4.34065 -42.9605 43.4178
56 5.08642 1.34965 1 4.51468 -46.6381 -91.6056
57 5.28642 1.34965 1 4.69077 -46.6435 84.4207
58 5.48642 1.34965 1 4.86872 -42.6227 -51.8442
59 5.68642 1.34965 1 5.04831 -42.3449 159.824
60 5.88642 1.34965 1 5.22939 -43.6753 7.19791
61 6.08642 1.34965 1 5.4118 -41.6028 -166.37
62 6.28642 1.34965 1 5.59541 -41.6014 33.464
63 6.48642 1.34965 1 5.78011 -41.8778 -131.431
64 4.88642 1.54965 1 4.40162 -50.9899 -162.496
65 5.08642 1.54965 1 4.57333 -51.8185 70.2701
66 5.28642 1.54965 1 4.74725 -48.1442 -88.4371
67 5.48642 1.54965 1 4.92315 -42.6984 158.254
68 5.68642 1.54965 1 5.10083 -43.9554 2.98858
69 5.88642 1.54965 1 5.28011 -46.0505 -158.864
70 6.08642 1.54965 1 5.46082 -42.7443 51.8704
71 6.28642 1.54965 1 5.64284 -42.7118 -104.608
72 6.48642 1.54965 1 5.82603 -42.0666 108.506
73 4.88642 1.74965 1 4.47072 -48.0858 21.8623
74 5.08642 1.74965 1 4.63987 -48.944 -135.769
75 5.28642 1.74965 1 4.81138 -45.5796 95.8641
76 5.48642 1.74965 1 4.98502 -43.5418 -21.109
77 5.68642 1.74965 1 5.16057 -43.3064 -159.043
78 5.88642 1.74965 1 5.33784 -41.5912 32.1289
79 6.08642 1.74965 1 5.51666 -40.923 -114.54
80 6.28642 1.74965 1 5.6969 -40.6293 96.8501
81 6.48642 1.74965 1 5.87841 -40.7735 -51.2404
