#Rx
# X(m), Y(m), Z(m), Distance(m), Power (dBm) Phase (deg)
1 9.79195 4.11542 1 5.07635 -49.7172 98.3021
2 9.99195 4.11542 1 5.19326 -47.2537 -177.423
3 10.1919 4.11542 1 5.31513 -53.7899 136.192
4 10.3919 4.11542 1 5.44163 -53.488 153.756
5 10.5919 4.11542 1 5.57243 -53.2026 121.19
6 10.7919 4.11542 1 5.70724 -49.0259 75.402
7 10.9919 4.11542 1 5.84579 -49.318 85.2868
8 11.1919 4.11542 1 5.98782 -45.8894 21.856
9 11.3919 4.11542 1 6.13307 -53.0204 -17.2054
10 11.5919 4.11542 1 6.28134 -45.9543 -75.7923
11 11.7919 4.11542 1 6.43241 -47.5973 -177.993
12 9.79195 4.31542 1 4.93019 -47.6331 163.607
13 9.99195 4.31542 1 5.05049 -52.3819 177.178
14 10.1919 4.31542 1 5.17572 -51.1693 -162.074
15 10.3919 4.31542 1 5.30554 -49.6163 166.075
16 10.5919 4.31542 1 5.43962 -51.3998 165.294
17 10.7919 4.31542 1 5.57764 -48.3881 114.531
18 10.9919 4.31542 1 5.71933 -48.6014 43.885
19 11.1919 4.31542 1 5.86442 -51.5591 29.855
20 11.3919 4.31542 1 6.01266 -45.6148 -35.6176
21 11.5919 4.31542 1 6.16383 -50.9651 -116.579
22 11.7919 4.31542 1 6.31771 -49.0717 -165.51
23 9.79195 4.51542 1 4.78793 -49.0732 -151.991
24 9.99195 4.51542 1 4.91172 -50.1021 -130.832
25 10.1919 4.51542 1 5.0404 -47.8405 -145.676
26 10.3919 4.51542 1 5.17361 -51.3618 -130.291
27 10.5919 4.51542 1 5.31102 -48.5108 149.126
28 10.7919 4.51542 1 5.4523 -53.8105 124.525
29 10.9919 4.51542 1 5.59716 -46.2844 69.5164
30 11.1919 4.51542 1 5.74534 -48.8673 3.29553
31 11.3919 4.51542 1 5.89657 -48.0873 -64.0158
32 11.5919 4.51542 1 6.05064 -49.5496 -132.284
33 11.7919 4.51542 1 6.20733 -50.1356 158.21
34 9.79195 4.71542 1 4.64992 -55.149 -73.9797
35 9.99195 4.71542 1 4.77728 -51.4807 -146.282
36 10.1919 4.71542 1 4.90949 -47.2415 -123.844
37 10.3919 4.71542 1 5.04616 -47.1058 -159.945
38 10.5919 4.71542 1 5.18695 -50.0576 168.948
39 10.7919 4.71542 1 5.33152 -48.3673 112.536
40 10.9919 4.71542 1 5.47957 -47.6764 41.7208
41 11.1919 4.71542 1 5.63084 -50.349 -25.5827
42 11.3919 4.71542 1 5.78507 -50.8146 -97.4699
43 11.5919 4.71542 1 5.94203 -49.3876 -163.884
44 11.7919 4.71542 1 6.10151 -49.4509 84.0151
45 9.79195 4.91542 1 4.51655 -49.7309 -56.3687
46 9.99195 4.91542 1 4.64757 -51.9026 -78.69
47 10.1919 4.91542 1 4.78336 -51.0459 -125.26
48 10.3919 4.91542 1 4.92354 -50.6116 -179.477
49 10.5919 4.91542 1 5.06773 -45.2672 165.927
50 10.7919 4.91542 1 5.21561 -45.5821 76.7194
51 10.9919 4.91542 1 5.36686 -54.3484 22.6839
52 11.1919 4.91542 1 5.52122 -47.7754 -34.9437
53 11.3919 4.91542 1 5.67843 -47.0358 -149.647
54 11.5919 4.91542 1 5.83825 -50.3941 103.357
55 11.7919 4.91542 1 6.00049 -54.0654 19.6365
56 9.79195 5.11542 1 4.38825 -52.4186 -86.5089
57 9.99195 5.11542 1 4.52299 -47.5527 -113.199
58 10.1919 5.11542 1 4.66241 -55.6222 -123.443
59 10.3919 5.11542 1 4.80611 -44.9043 -168.509
60 10.5919 5.11542 1 4.95372 -47.4462 84.0734
61 10.7919 5.11542 1 5.1049 -50.8554 93.2199
62 10.9919 5.11542 1 5.25934 -44.8701 -7.14598
63 11.1919 5.11542 1 5.41677 -49.4453 -133.422
64 11.3919 5.11542 1 5.57692 -57.3201 141.471
65 11.5919 5.11542 1 5.73957 -53.6213 64.8416
66 11.7919 5.11542 1 5.90452 -53.8862 -58.0675
67 9.79195 5.31542 1 4.26547 -46.4962 -70.7314
68 9.99195 5.31542 1 4.40396 -53.4122 -58.3124
69 10.1919 5.31542 1 4.54704 -45.9046 -162.217
70 10.3919 5.31542 1 4.69427 -49.916 117.835
71 10.5919 5.31542 1 4.84529 -49.0069 131.757
72 10.7919 5.31542 1 4.99975 -45.4138 2.26876
73 10.9919 5.31542 1 5.15734 -50.3276 -117.729
74 11.1919 5.31542 1 5.31779 -54.2722 -108.14
75 11.3919 5.31542 1 5.48083 -52.1965 109.067
76 11.5919 5.31542 1 5.64625 -57.8539 -17.7745
77 11.7919 5.31542 1 5.81385 -62.3131 -111.84
78 9.79195 5.51542 1 4.1487 -52.7428 -109.263
79 9.99195 5.51542 1 4.29096 -45.4904 -134.576
80 10.1919 5.51542 1 4.43768 -48.9791 155.017
81 10.3919 5.51542 1 4.58843 -51.8943 130.584
82 10.5919 5.51542 1 4.74282 -46.7746 37.2274
83 10.7919 5.51542 1 4.90051 -49.5079 -100.609
84 10.9919 5.51542 1 5.06119 -59.2917 -149.891
85 11.1919 5.51542 1 5.22459 -48.9581 128.003
86 11.3919 5.51542 1 5.39045 -52.3814 -25.8773
87 11.5919 5.51542 1 5.55856 -55.4393 -169.144
88 11.7919 5.51542 1 5.72873 -60.5824 -11.6057
89 9.79195 5.71542 1 4.03846 -48.0696 -100.624
90 9.99195 5.71542 1 4.18448 -53.4246 162.119
91 10.1919 5.71542 1 4.3348 -57.1657 139.713
92 10.3919 5.71542 1 4.489 -44.6278 52.275
93 10.5919 5.71542 1 4.6467 -49.448 -73.7905
94 10.7919 5.71542 1 4.80754 -72.6619 46.2656
95 10.9919 5.71542 1 4.97123 -56.4653 139.681
96 11.1919 5.71542 1 5.13749 -52.7204 -19.0061
97 11.3919 5.71542 1 5.30608 -56.5693 -174.904
98 11.5919 5.71542 1 5.47678 -58.5363 -11.061
99 11.7919 5.71542 1 5.64941 -53.3499 178.601
100 9.79195 5.91542 1 3.93531 -53.8617 102.157
101 9.99195 5.91542 1 4.08501 -50.2839 145.089
102 10.1919 5.91542 1 4.23887 -49.1428 71.6422
103 10.3919 5.91542 1 4.39644 -46.726 -97.634
104 10.5919 5.91542 1 4.55734 -66.2886 -80.7086
105 10.7919 5.91542 1 4.72123 -52.9272 -166.167
106 10.9919 5.91542 1 4.8878 -58.1099 48.5396
107 11.1919 5.91542 1 5.05681 -55.1831 172.994
108 11.3919 5.91542 1 5.228 -52.3826 29.6546
109 11.5919 5.91542 1 5.40117 -50.5188 -168.719
110 11.7919 5.91542 1 5.57613 -49.5452 42.802
111 9.79195 6.11542 1 3.83981 -48.3036 167.184
112 9.99195 6.11542 1 3.9931 -48.4303 3.53956
113 10.1919 6.11542 1 4.15036 -51.2787 -87.6002
114 10.3919 6.11542 1 4.31116 -50.6685 70.7186
115 10.5919 6.11542 1 4.47513 -55.1939 134.395
116 10.7919 6.11542 1 4.64192 -53.508 -1.31569
117 10.9919 6.11542 1 4.81125 -56.4239 165.517
118 11.1919 6.11542 1 4.98285 -46.9761 -1.8306
119 11.3919 6.11542 1 5.15649 -45.9865 -153.927
120 11.5919 6.11542 1 5.33199 -47.0627 18.2613
121 11.7919 6.11542 1 5.50915 -48.0647 -138.711
122 9.79195 6.31542 1 3.75255 -46.9275 -19.5747
123 9.99195 6.31542 1 3.90926 -50.9905 -148.547
124 10.1919 6.31542 1 4.06976 -62.2659 72.3863
125 10.3919 6.31542 1 4.23363 -57.9429 -144.802
126 10.5919 6.31542 1 4.40049 -53.8741 -82.31
127 10.7919 6.31542 1 4.57 -49.6799 147.671
128 10.9919 6.31542 1 4.7419 -48.6298 -46.5462
129 11.1919 6.31542 1 4.91592 -43.4819 160.364
130 11.3919 6.31542 1 5.09185 -44.1973 2.24073
131 11.5919 6.31542 1 5.26949 -49.3634 -166.992
132 11.7919 6.31542 1 5.44869 -50.1934 45.9637
133 9.79195 6.51542 1 3.67411 -48.9901 146.211
134 9.99195 6.51542 1 3.83403 -49.5712 37.0455
135 10.1919 6.51542 1 3.99755 -53.7104 94.905
136 10.3919 6.51542 1 4.16426 -52.5876 -113.559
137 10.5919 6.51542 1 4.33379 -47.6425 65.9523
138 10.7919 6.51542 1 4.50582 -46.4155 -61.9525
139 10.9919 6.51542 1 4.68007 -46.362 114.452
140 11.1919 6.51542 1 4.85631 -44.8026 -41.8888
141 11.3919 6.51542 1 5.03432 -47.9493 -178.027
142 11.5919 6.51542 1 5.21393 -51.7866 47.0185
143 11.7919 6.51542 1 5.39497 -49.8074 -128.006
144 9.79195 6.71542 1 3.60508 -65.7805 121.684
145 9.99195 6.71542 1 3.76792 -55.7523 -83.5604
146 10.1919 6.71542 1 3.9342 -47.3167 -164.849
147 10.3919 6.71542 1 4.10348 -46.0743 32.101
148 10.5919 6.71542 1 4.27542 -44.922 -139.849
149 10.7919 6.71542 1 4.44971 -45.9814 98.6968
150 10.9919 6.71542 1 4.62607 -48.2569 -65.7635
151 11.1919 6.71542 1 4.80429 -47.4522 132.014
152 11.3919 6.71542 1 4.98416 -45.7336 13.5539
153 11.5919 6.71542 1 5.16551 -44.9086 -147.237
154 11.7919 6.71542 1 5.3482 -48.3353 31.1593
155 9.79195 6.91542 1 3.54599 -48.2639 -120.409
156 9.99195 6.91542 1 3.71143 -45.3778 92.3976
157 10.1919 6.91542 1 3.88013 -42.0002 -50.1204
158 10.3919 6.91542 1 4.05167 -45.0728 166.669
159 10.5919 6.91542 1 4.22572 -44.5275 17.0875
160 10.7919 6.91542 1 4.40197 -44.2517 -98.5338
161 10.9919 6.91542 1 4.58018 -45.4082 132.309
162 11.1919 6.91542 1 4.76012 -45.0414 -42.483
163 11.3919 6.91542 1 4.94159 -42.335 159.662
164 11.5919 6.91542 1 5.12445 -43.1012 -8.42759
165 11.7919 6.91542 1 5.30855 -48.0199 165.928
166 9.79195 7.11542 1 3.49736 -43.0355 25.3323
167 9.99195 7.11542 1 3.665 -42.8116 -131.986
168 10.1919 7.11542 1 3.83574 -42.443 66.5883
169 10.3919 7.11542 1 4.00918 -51.0266 -53.9293
170 10.5919 7.11542 1 4.185 -46.7453 -178.822
171 10.7919 7.11542 1 4.3629 -42.2807 26.5941
172 10.9919 7.11542 1 4.54263 -44.1364 -114.03
173 11.1919 7.11542 1 4.724 -44.6754 72.9258
174 11.3919 7.11542 1 4.90682 -42.848 -105.79
175 11.5919 7.11542 1 5.09092 -44.9946 85.2517
176 11.7919 7.11542 1 5.27619 -49.2811 -77.0382
177 9.79195 7.31542 1 3.45963 -44.0852 131.401
178 9.99195 7.31542 1 3.62901 -46.3523 -26.1422
179 10.1919 7.31542 1 3.80136 -49.427 -169.142
180 10.3919 7.31542 1 3.97631 -49.0979 91.3813
181 10.5919 7.31542 1 4.15351 -48.6011 -67.8219
182 10.7919 7.31542 1 4.33271 -43.3403 133.355
183 10.9919 7.31542 1 4.51365 -44.1823 -21.2152
184 11.1919 7.31542 1 4.69613 -46.7035 147.016
185 11.3919 7.31542 1 4.87999 -47.1953 -19.9198
186 11.5919 7.31542 1 5.06507 -50.0827 -177.823
187 11.7919 7.31542 1 5.25125 -56.7944 28.5391
188 9.79195 7.51542 1 3.43315 -47.0597 -166.807
189 9.99195 7.51542 1 3.60377 -55.9309 46.8933
190 10.1919 7.51542 1 3.77728 -57.0217 -10.798
191 10.3919 7.51542 1 3.95329 -45.8403 -172.093
192 10.5919 7.51542 1 4.13148 -46.0905 0.781758
193 10.7919 7.51542 1 4.31159 -47.4807 -172.161
194 10.9919 7.51542 1 4.49338 -48.462 44.6563
195 11.1919 7.51542 1 4.67666 -50.845 -128.67
196 11.3919 7.51542 1 4.86126 -54.2281 27.7054
197 11.5919 7.51542 1 5.04703 -60.6306 -124.303
198 11.7919 7.51542 1 5.23384 -54.867 115.508
199 9.79195 7.71542 1 3.41819 -50.0344 -82.3122
200 9.99195 7.71542 1 3.58952 -54.6396 114.77
201 10.1919 7.71542 1 3.76369 -56.6725 15.2688
202 10.3919 7.71542 1 3.9403 -51.4199 -124.443
203 10.5919 7.71542 1 4.11906 -54.5313 92.3315
204 10.7919 7.71542 1 4.29969 -50.2288 -108.198
205 10.9919 7.71542 1 4.48196 -51.2583 98.2184
206 11.1919 7.71542 1 4.66569 -62.7219 -54.7025
207 11.3919 7.71542 1 4.8507 -53.8686 66.392
208 11.5919 7.71542 1 5.03686 -52.4117 -97.479
209 11.7919 7.71542 1 5.22404 -61.7646 -172.121
