#Rx
# X(m), Y(m), Z(m), Distance(m), Power (dBm) Phase (deg)
1 4.88642 0.149652 1 7.17859 -59.8009 -45.23
2 5.08642 0.149652 1 6.98516 -53.1222 78.951
3 5.28642 0.149652 1 6.79211 -49.0041 -134.017
4 5.48642 0.149652 1 6.59948 -50.2233 -6.43172
5 5.68642 0.149652 1 6.40729 -54.7929 100.89
6 5.88642 0.149652 1 6.2156 -52.7749 -176.641
7 6.08642 0.149652 1 6.02445 -53.2773 -65.2853
8 6.28642 0.149652 1 5.83389 -58.8646 -117.793
9 6.48642 0.149652 1 5.64399 -57.3355 14.2763
10 4.88642 0.349652 1 7.18079 -59.6869 -164.575
11 5.08642 0.349652 1 6.98742 -66.7264 55.4807
12 5.28642 0.349652 1 6.79444 -55.1052 -102.824
13 5.48642 0.349652 1 6.60187 -61.4724 119.367
14 5.68642 0.349652 1 6.40976 -51.5012 -46.7092
15 5.88642 0.349652 1 6.21814 -46.5481 111.593
16 6.08642 0.349652 1 6.02707 -48.0153 -91.9514
17 6.28642 0.349652 1 5.8366 -54.3757 46.079
18 6.48642 0.349652 1 5.64679 -52.3739 -57.2697
19 4.88642 0.549652 1 7.18856 -47.6701 148.115
20 5.08642 0.549652 1 6.9954 -51.6405 -21.935
21 5.28642 0.549652 1 6.80264 -55.4087 -142.986
22 5.48642 0.549652 1 6.61031 -52.4142 59.8068
23 5.68642 0.549652 1 6.41846 -47.436 -98.0699
24 5.88642 0.549652 1 6.22711 -46.6613 69.0123
25 6.08642 0.549652 1 6.03632 -47.6414 -122.349
26 6.28642 0.549652 1 5.84615 -56.3057 86.7711
27 6.48642 0.549652 1 5.65666 -50.4354 -59.7268
28 4.88642 0.749652 1 7.20187 -53.9838 138.093
29 5.08642 0.749652 1 7.00908 -53.1537 -23.0524
30 5.28642 0.749652 1 6.81671 -48.8004 179.79
31 5.48642 0.749652 1 6.62479 -47.276 2.56819
32 5.68642 0.749652 1 6.43336 -45.8949 178.03
33 5.88642 0.749652 1 6.24247 -46.5202 -3.9122
34 6.08642 0.749652 1 6.05217 -48.2859 159.737
35 6.28642 0.749652 1 5.86252 -55.5225 -9.14236
36 6.48642 0.749652 1 5.67357 -51.1465 -134.062
37 4.88642 0.949652 1 7.2207 -49.22 49.2987
38 5.08642 0.949652 1 7.02843 -49.3158 -113.353
39 5.28642 0.949652 1 6.8366 -49.6205 86.9812
40 5.48642 0.949652 1 6.64526 -48.1255 -83.6169
41 5.68642 0.949652 1 6.45444 -47.1782 100.64
42 5.88642 0.949652 1 6.26419 -47.2065 -82.3479
43 6.08642 0.949652 1 6.07457 -47.0307 105.427
44 6.28642 0.949652 1 5.88563 -49.6746 -70.734
45 6.48642 0.949652 1 5.69746 -47.5343 128.667
46 4.88642 1.14965 1 7.24501 -51.4776 -53.3002
47 5.08642 1.14965 1 7.0534 -55.3148 179.509
48 5.28642 1.14965 1 6.86227 -49.7991 -3.80499
49 5.48642 1.14965 1 6.67166 -49.1553 175.016
50 5.68642 1.14965 1 6.48162 -49.4578 9.61855
51 5.88642 1.14965 1 6.29219 -51.4942 179.927
52 6.08642 1.14965 1 6.10344 -50.9189 19.7727
53 6.28642 1.14965 1 5.91543 -49.7707 -157.681
54 6.48642 1.14965 1 5.72823 -47.9375 17.9724
55 4.88642 1.34965 1 7.27473 -47.1587 -141.296
56 5.08642 1.34965 1 7.08393 -47.3341 35.541
57 5.28642 1.34965 1 6.89364 -56.6596 -78.0713
58 5.48642 1.34965 1 6.70393 -48.8393 91.1682
59 5.68642 1.34965 1 6.51482 -54.1512 -107.628
60 5.88642 1.34965 1 6.32639 -52.5521 85.9682
61 6.08642 1.34965 1 6.13869 -49.4786 -80.1144
62 6.28642 1.34965 1 5.9518 -47.9494 102.945
63 6.48642 1.34965 1 5.76578 -45.1194 -76.3402
64 4.88642 1.54965 1 7.30981 -51.7551 93.2347
65 5.08642 1.54965 1 7.11994 -52.6546 -58.1391
66 5.28642 1.54965 1 6.93065 -50.6892 117.812
67 5.48642 1.54965 1 6.74197 -49.4322 -63.4403
68 5.68642 1.54965 1 6.55397 -51.2149 117.19
69 5.88642 1.54965 1 6.3667 -45.0259 -51.1711
70 6.08642 1.54965 1 6.18022 -50.1276 152.823
71 6.28642 1.54965 1 5.99462 -49.8084 -34.2869
72 6.48642 1.54965 1 5.80997 -48.7712 147.27
73 4.88642 1.74965 1 7.35016 -48.1653 25.2312
74 5.08642 1.74965 1 7.16137 -47.9837 -177.551
75 5.28642 1.74965 1 6.9732 -47.8814 -3.75654
76 5.48642 1.74965 1 6.78571 -45.2868 167.641
77 5.68642 1.74965 1 6.59895 -47.7374 -34.4203
78 5.88642 1.74965 1 6.41299 -47.5042 134.192
79 6.08642 1.74965 1 6.2279 -52.0111 -69.8956
80 6.28642 1.74965 1 6.04376 -52.8915 61.238
81 6.48642 1.74965 1 5.86066 -66.0828 -166.966
