#Rx
# X(m), Y(m), Z(m), Distance(m), Power (dBm) Phase (deg)
1 0.110705 4.12118 1 4.50772 -57.9034 20.0748
2 0.310705 4.12118 1 4.46657 -55.5308 121.536
3 0.510705 4.12118 1 4.43408 -65.1045 -117.208
4 0.710705 4.12118 1 4.41042 -59.5753 -89.161
5 0.910705 4.12118 1 4.39574 -79.4785 24.8752
6 1.1107 4.12118 1 4.39014 -66.3664 176.815
7 1.3107 4.12118 1 4.39364 -50.2176 130.316
8 1.5107 4.12118 1 4.40622 -46.6239 86.7166
9 1.7107 4.12118 1 4.42782 -44.8374 9.37042
10 1.9107 4.12118 1 4.45829 -45.0758 -88.5642
11 0.110705 4.32118 1 4.68627 -59.1892 -126.731
12 0.310705 4.32118 1 4.64671 -58.5192 -57.7056
13 0.510705 4.32118 1 4.61548 -66.1443 78.7407
14 0.710705 4.32118 1 4.59276 -63.6195 92.7916
15 0.910705 4.32118 1 4.57866 -75.7198 -122.199
16 1.1107 4.32118 1 4.57328 -56.7628 -31.3592
17 1.3107 4.32118 1 4.57665 -55.6429 -29.1493
18 1.5107 4.32118 1 4.58873 -50.0476 -79.343
19 1.7107 4.32118 1 4.60947 -48.4832 -162.522
20 1.9107 4.32118 1 4.63874 -48.7973 91.8561
21 0.110705 4.52118 1 4.8665 -52.0458 62.3851
22 0.310705 4.52118 1 4.82841 -61.6679 147.067
23 0.510705 4.52118 1 4.79836 -61.7575 -81.0886
24 0.710705 4.52118 1 4.77651 -64.6862 -114.254
25 0.910705 4.52118 1 4.76296 -66.9233 104.014
26 1.1107 4.52118 1 4.75779 -56.4758 -4.65684
27 1.3107 4.52118 1 4.76102 -51.7229 -22.5482
28 1.5107 4.52118 1 4.77264 -49.2146 -80.4259
29 1.7107 4.52118 1 4.79258 -48.3146 -144.789
30 1.9107 4.52118 1 4.82075 -48.4741 121.078
31 0.110705 4.72118 1 5.04821 -54.3962 -100.591
32 0.310705 4.72118 1 5.0115 -59.8943 12.6668
33 0.510705 4.72118 1 4.98256 -62.056 83.483
34 0.710705 4.72118 1 4.96152 -66.997 107.84
35 0.910705 4.72118 1 4.94848 -62.2704 -84.2045
36 1.1107 4.72118 1 4.9435 -58.8206 135.033
37 1.3107 4.72118 1 4.94661 -52.1327 121.481
38 1.5107 4.72118 1 4.95779 -48.2817 80.4616
39 1.7107 4.72118 1 4.97699 -45.5109 13.4291
40 1.9107 4.72118 1 5.00412 -44.1152 -77.0587
41 0.110705 4.92118 1 5.23126 -57.1395 93.6426
42 0.310705 4.92118 1 5.19585 -58.5023 -132.439
43 0.510705 4.92118 1 5.16794 -69.3444 -113.315
44 0.710705 4.92118 1 5.14765 -68.2004 -14.7333
45 0.910705 4.92118 1 5.13508 -63.0895 124.065
46 1.1107 4.92118 1 5.13029 -64.8622 -45.2941
47 1.3107 4.92118 1 5.13328 -52.6915 -69.2071
48 1.5107 4.92118 1 5.14406 -49.1067 -104.867
49 1.7107 4.92118 1 5.16257 -45.2271 -164.64
50 1.9107 4.92118 1 5.18872 -43.7416 109.273
51 0.110705 5.12118 1 5.41551 -58.4199 -58.2726
52 0.310705 5.12118 1 5.38131 -62.6352 72.2005
53 0.510705 5.12118 1 5.35436 -65.552 51.9227
54 0.710705 5.12118 1 5.33479 -65.3465 -120.666
55 0.910705 5.12118 1 5.32266 -70.1133 -37.2291
56 1.1107 5.12118 1 5.31803 -62.5774 -178.247
57 1.3107 5.12118 1 5.32092 -53.3184 126.903
58 1.5107 5.12118 1 5.33132 -48.9284 92.0376
59 1.7107 5.12118 1 5.34918 -46.3465 28.6354
60 1.9107 5.12118 1 5.37443 -45.2406 -50.7232
61 0.110705 5.32118 1 5.60083 -58.3664 126.762
62 0.310705 5.32118 1 5.56777 -76.938 -35.3013
63 0.510705 5.32118 1 5.54174 -66.1647 -163.137
64 0.710705 5.32118 1 5.52283 -63.4396 31.7571
65 0.910705 5.32118 1 5.51111 -69.8936 179.666
66 1.1107 5.32118 1 5.50664 -62.4348 -48.1911
67 1.3107 5.32118 1 5.50943 -54.3591 -45.9513
68 1.5107 5.32118 1 5.51948 -50.4655 -94.2978
69 1.7107 5.32118 1 5.53673 -47.1116 -150.165
70 1.9107 5.32118 1 5.56113 -45.7147 134.027
71 0.110705 5.52118 1 5.78714 -59.3913 -51.8417
72 0.310705 5.52118 1 5.75515 -67.9074 -133.013
73 0.510705 5.52118 1 5.72996 -70.7029 15.8381
74 0.710705 5.52118 1 5.71168 -65.8593 169.522
75 0.910705 5.52118 1 5.70035 -69.2365 89.2108
76 1.1107 5.52118 1 5.69603 -65.8071 59.0633
77 1.3107 5.52118 1 5.69873 -58.7143 123.717
78 1.5107 5.52118 1 5.70844 -53.5148 69.9118
79 1.7107 5.52118 1 5.72512 -49.5511 13.9713
80 1.9107 5.52118 1 5.74872 -47.2866 -65.1757
81 0.110705 5.72118 1 5.97433 -59.4412 107.829
82 0.310705 5.72118 1 5.94335 -66.2543 28.4829
83 0.510705 5.72118 1 5.91896 -66.6603 -50.078
84 0.710705 5.72118 1 5.90126 -70.6955 -53.7085
85 0.910705 5.72118 1 5.8903 -63.1454 -95.7789
86 1.1107 5.72118 1 5.88612 -64.0414 -73.1387
87 1.3107 5.72118 1 5.88873 -59.1046 -60.9472
88 1.5107 5.72118 1 5.89813 -54.9208 -104.889
89 1.7107 5.72118 1 5.91427 -49.8774 -173.834
90 1.9107 5.72118 1 5.93712 -49.346 111.787
91 0.110705 5.92118 1 6.16232 -60.9231 -109.372
92 0.310705 5.92118 1 6.13229 -69.2331 -139.168
93 0.510705 5.92118 1 6.10866 -58.8231 72.9252
94 0.710705 5.92118 1 6.09151 -68.2562 108.038
95 0.910705 5.92118 1 6.08089 -62.0302 72.7213
96 1.1107 5.92118 1 6.07684 -58.0443 103.842
97 1.3107 5.92118 1 6.07937 -60.8337 82.9625
98 1.5107 5.92118 1 6.08848 -52.8531 48.7127
99 1.7107 5.92118 1 6.10412 -50.801 -3.26271
100 1.9107 5.92118 1 6.12626 -48.9004 -78.0179
101 0.110705 6.12118 1 6.35105 -64.4672 73.1301
102 0.310705 6.12118 1 6.32192 -66.3027 56.3162
103 0.510705 6.12118 1 6.299 -58.4866 -129.197
104 0.710705 6.12118 1 6.28237 -69.2314 -49.5584
105 0.910705 6.12118 1 6.27207 -71.6119 -51.0959
106 1.1107 6.12118 1 6.26815 -59.0083 -72.6942
107 1.3107 6.12118 1 6.2706 -65.4643 -106.245
108 1.5107 6.12118 1 6.27942 -55.3179 -133.091
109 1.7107 6.12118 1 6.29459 -53.0205 170.683
110 1.9107 6.12118 1 6.31607 -51.4533 90.6216
111 0.110705 6.32118 1 6.54045 -65.1893 -78.6607
112 0.310705 6.32118 1 6.51216 -69.4782 -108.387
113 0.510705 6.32118 1 6.48992 -59.7556 41.3061
114 0.710705 6.32118 1 6.47378 -76.0192 68.4014
115 0.910705 6.32118 1 6.46379 -64.0325 155.214
116 1.1107 6.32118 1 6.45998 -60.9676 114.991
117 1.3107 6.32118 1 6.46236 -61.1721 59.573
118 1.5107 6.32118 1 6.47092 -57.1451 17.9682
119 1.7107 6.32118 1 6.48564 -53.1509 -32.4307
120 1.9107 6.32118 1 6.50648 -52.0713 -115.047
121 0.110705 6.52118 1 6.73046 -62.9353 97.7988
122 0.310705 6.52118 1 6.70298 -65.3947 104.431
123 0.510705 6.52118 1 6.68137 -62.4346 -121.486
124 0.710705 6.52118 1 6.66569 -62.6268 113.146
125 0.910705 6.52118 1 6.65599 -60.0419 -44.7782
126 1.1107 6.52118 1 6.65229 -60.0116 -47.5192
127 1.3107 6.52118 1 6.6546 -61.2957 -158.515
128 1.5107 6.52118 1 6.66292 -59.376 175.649
129 1.7107 6.52118 1 6.67721 -56.5857 111.039
130 1.9107 6.52118 1 6.69746 -52.3965 46.6884
131 0.110705 6.72118 1 6.92104 -67.2667 -96.5522
132 0.310705 6.72118 1 6.89431 -65.9255 -108.203
133 0.510705 6.72118 1 6.8733 -60.3604 68.2526
134 0.710705 6.72118 1 6.85807 -62.1629 -81.3076
135 0.910705 6.72118 1 6.84864 -59.9738 -27.6514
136 1.1107 6.72118 1 6.84504 -71.9235 102.895
137 1.3107 6.72118 1 6.84729 -58.7016 -24.7833
138 1.5107 6.72118 1 6.85537 -54.0058 -38.6489
139 1.7107 6.72118 1 6.86927 -52.1412 -85.6536
140 1.9107 6.72118 1 6.88895 -48.934 -141.197
141 0.110705 6.92118 1 7.11213 -74.0409 114.267
142 0.310705 6.92118 1 7.08613 -65.3196 54.3189
143 0.510705 6.92118 1 7.06569 -63.9186 -121.635
144 0.710705 6.92118 1 7.05086 -63.9091 133.772
145 0.910705 6.92118 1 7.04169 -54.016 112.677
146 1.1107 6.92118 1 7.0382 -62.6699 123.11
147 1.3107 6.92118 1 7.04038 -55.1091 149.399
148 1.5107 6.92118 1 7.04824 -53.6096 127.658
149 1.7107 6.92118 1 7.06176 -51.7074 86.0827
150 1.9107 6.92118 1 7.08091 -50.0533 44.0619
151 0.110705 7.12118 1 7.3037 -75.1115 -129.333
152 0.310705 7.12118 1 7.27838 -76.1156 -85.0892
153 0.510705 7.12118 1 7.25848 -65.7751 39.8416
154 0.710705 7.12118 1 7.24405 -61.8895 -42.8135
155 0.910705 7.12118 1 7.23513 -51.1519 -79.6448
156 1.1107 7.12118 1 7.23172 -57.9823 -50.6305
157 1.3107 7.12118 1 7.23385 -54.8596 -25.164
158 1.5107 7.12118 1 7.2415 -53.6929 -53.6178
159 1.7107 7.12118 1 7.25466 -53.86 -99.3545
160 1.9107 7.12118 1 7.2733 -51.3439 -163.185
161 0.110705 7.32118 1 7.49571 -67.3209 54.4583
162 0.310705 7.32118 1 7.47104 -68.0171 95.8927
163 0.510705 7.32118 1 7.45166 -64.8366 -122.298
164 0.710705 7.32118 1 7.4376 -61.9873 117.921
165 0.910705 7.32118 1 7.42891 -50.4928 85.3206
166 1.1107 7.32118 1 7.4256 -49.1894 114.958
167 1.3107 7.32118 1 7.42767 -56.3855 136.975
168 1.5107 7.32118 1 7.43512 -53.3047 118.301
169 1.7107 7.32118 1 7.44794 -50.2014 55.216
170 1.9107 7.32118 1 7.46609 -47.1455 8.25849
171 0.110705 7.52118 1 7.68813 -67.5714 -147.195
172 0.310705 7.52118 1 7.66408 -67.9111 -75.6384
173 0.510705 7.52118 1 7.64518 -64.7235 8.8451
174 0.710705 7.52118 1 7.63149 -63.0281 -74.8036
175 0.910705 7.52118 1 7.62302 -52.1785 -115.744
176 1.1107 7.52118 1 7.61978 -51.1863 -85.2434
177 1.3107 7.52118 1 7.6218 -61.5185 -35.4114
178 1.5107 7.52118 1 7.62906 -50.3341 -69.2564
179 1.7107 7.52118 1 7.64156 -48.5895 -102.503
180 1.9107 7.52118 1 7.65925 -47.3265 -148.497
181 0.110705 7.72118 1 7.88092 -69.9247 84.228
182 0.310705 7.72118 1 7.85746 -74.5804 89.7487
183 0.510705 7.72118 1 7.83904 -70.0056 -126.554
184 0.710705 7.72118 1 7.82568 -65.083 99.6015
185 0.910705 7.72118 1 7.81742 -52.9767 50.3301
186 1.1107 7.72118 1 7.81427 -52.4052 88.0961
187 1.3107 7.72118 1 7.81623 -56.2507 165.98
188 1.5107 7.72118 1 7.82332 -51.2631 146.358
189 1.7107 7.72118 1 7.8355 -51.2273 103.703
190 1.9107 7.72118 1 7.85276 -51.9035 39.0188
